05/03/2022	20:01:31	Ver.	4.1	UNKNOWN
Optical Delay	660.003261	Delta X		0.078125	Sweeps	1	Scan Rate	0/0
Coordinates	Axis 1	NaN	Axis 2	NaN	Axis 3	NaN	Axis 4	NaN	Axis 5	NaN	Axis 6	0.000000
TX Power	0.000000	RX Power	0.000000

660.003	0.0148914
660.081	0.0148287
660.160	0.0149665
660.238	0.0149557
660.316	0.0149432
660.394	0.0149938
660.472	0.0148975
660.550	0.0148741
660.628	0.0149615
660.706	0.0149112
660.785	0.0147999
660.863	0.0147826
660.941	0.0147755
661.019	0.0149944
661.097	0.0150274
661.175	0.0148842
661.253	0.0149082
661.331	0.0148866
661.410	0.0149368
661.488	0.0149129
661.566	0.0149734
661.644	0.0148099
661.722	0.0147731
661.800	0.0149728
661.878	0.0150496
661.956	0.0148945
662.035	0.0149975
662.113	0.0149048
662.191	0.0148975
662.269	0.0149682
662.347	0.0148742
662.425	0.0149283
662.503	0.0149825
662.581	0.0149127
662.660	0.0147725
662.738	0.0149532
662.816	0.0149670
662.894	0.0149054
662.972	0.0150054
663.050	0.0150659
663.128	0.0149352
663.206	0.0149137
663.285	0.0149666
663.363	0.0149312
663.441	0.0150057
663.519	0.0148766
663.597	0.0149745
663.675	0.0148950
663.753	0.0148131
663.831	0.0148329
663.910	0.0149104
663.988	0.0149606
664.066	0.0148852
664.144	0.0147987
664.222	0.0149542
664.300	0.0150510
664.378	0.0148617
664.456	0.0150182
664.535	0.0149695
664.613	0.0149545
664.691	0.0149909
664.769	0.0148997
664.847	0.0150059
664.925	0.0149744
665.003	0.0147417
665.081	0.0149754
665.160	0.0149460
665.238	0.0149841
665.316	0.0149371
665.394	0.0149857
665.472	0.0149324
665.550	0.0149299
665.628	0.0148177
665.706	0.0149755
665.785	0.0148367
665.863	0.0148606
665.941	0.0149169
666.019	0.0148721
666.097	0.0148991
666.175	0.0149138
666.253	0.0149483
666.331	0.0148911
666.410	0.0148561
666.488	0.0149223
666.566	0.0150155
666.644	0.0148696
666.722	0.0149998
666.800	0.0149823
666.878	0.0150086
666.956	0.0149850
667.035	0.0149080
667.113	0.0149300
667.191	0.0149087
667.269	0.0149564
667.347	0.0150738
667.425	0.0149342
667.503	0.0148806
667.581	0.0150047
667.660	0.0149421
667.738	0.0149981
667.816	0.0148828
667.894	0.0148507
667.972	0.0148525
668.050	0.0147243
668.128	0.0148775
668.206	0.0148969
668.285	0.0148766
668.363	0.0148922
668.441	0.0149683
668.519	0.0149111
668.597	0.0149158
668.675	0.0150444
668.753	0.0148602
668.831	0.0148530
668.910	0.0148325
668.988	0.0149540
669.066	0.0147935
669.144	0.0148664
669.222	0.0148338
669.300	0.0148824
669.378	0.0149425
669.456	0.0147466
669.535	0.0149122
669.613	0.0150207
669.691	0.0149294
669.769	0.0147826
669.847	0.0149822
669.925	0.0149841
670.003	0.0149108
670.081	0.0149519
670.160	0.0148976
670.238	0.0147916
670.316	0.0148514
670.394	0.0148599
670.472	0.0148918
670.550	0.0148084
670.628	0.0149020
670.706	0.0146660
670.785	0.0148786
670.863	0.0150282
670.941	0.0148743
671.019	0.0149682
671.097	0.0150074
671.175	0.0149916
671.253	0.0149065
671.331	0.0150426
671.410	0.0149666
671.488	0.0147854
671.566	0.0149540
671.644	0.0148795
671.722	0.0148646
671.800	0.0149418
671.878	0.0149332
671.956	0.0148569
672.035	0.0149248
672.113	0.0148940
672.191	0.0149630
672.269	0.0149809
672.347	0.0149499
672.425	0.0148710
672.503	0.0149799
672.581	0.0149345
672.660	0.0149467
672.738	0.0150141
672.816	0.0148744
672.894	0.0147636
672.972	0.0149953
673.050	0.0148059
673.128	0.0148057
673.206	0.0150058
673.285	0.0148122
673.363	0.0149346
673.441	0.0149404
673.519	0.0148988
673.597	0.0148179
673.675	0.0148103
673.753	0.0148803
673.831	0.0148615
673.910	0.0149546
673.988	0.0147803
674.066	0.0149034
674.144	0.0150573
674.222	0.0148219
674.300	0.0149184
674.378	0.0149281
674.456	0.0149350
674.535	0.0150616
674.613	0.0149059
674.691	0.0148977
674.769	0.0148276
674.847	0.0148378
674.925	0.0150031
675.003	0.0149082
675.081	0.0147810
675.160	0.0149813
675.238	0.0149129
675.316	0.0149512
675.394	0.0148909
675.472	0.0149742
675.550	0.0148208
675.628	0.0148086
675.706	0.0149347
675.785	0.0148870
675.863	0.0148743
675.941	0.0148257
676.019	0.0148941
676.097	0.0149304
676.175	0.0151025
676.253	0.0148281
676.331	0.0149355
676.410	0.0149329
676.488	0.0149039
676.566	0.0148950
676.644	0.0149694
676.722	0.0148556
676.800	0.0149389
676.878	0.0149716
676.956	0.0148269
677.035	0.0148273
677.113	0.0149494
677.191	0.0149299
677.269	0.0149350
677.347	0.0149574
677.425	0.0149248
677.503	0.0149569
677.581	0.0149226
677.660	0.0149970
677.738	0.0150315
677.816	0.0150256
677.894	0.0148030
677.972	0.0148982
678.050	0.0148933
678.128	0.0147924
678.206	0.0149123
678.285	0.0148850
678.363	0.0149146
678.441	0.0149639
678.519	0.0149473
678.597	0.0149528
678.675	0.0148876
678.753	0.0149121
678.831	0.0149117
678.910	0.0148191
678.988	0.0150134
679.066	0.0150038
679.144	0.0148637
679.222	0.0148140
679.300	0.0149133
679.378	0.0148304
679.456	0.0149944
679.535	0.0148259
679.613	0.0148310
679.691	0.0148753
679.769	0.0148255
679.847	0.0148887
679.925	0.0149809
680.003	0.0149186
680.081	0.0150268
680.160	0.0148407
680.238	0.0148077
680.316	0.0150194
680.394	0.0148592
680.472	0.0148751
680.550	0.0148854
680.628	0.0150049
680.706	0.0148868
680.785	0.0150376
680.863	0.0147831
680.941	0.0147896
681.019	0.0148322
681.097	0.0149346
681.175	0.0148396
681.253	0.0148930
681.331	0.0148827
681.410	0.0148418
681.488	0.0148664
681.566	0.0148112
681.644	0.0149393
681.722	0.0148252
681.800	0.0147984
681.878	0.0150181
681.956	0.0149241
682.035	0.0147916
682.113	0.0149384
682.191	0.0148909
682.269	0.0148814
682.347	0.0149892
682.425	0.0148328
682.503	0.0148913
682.581	0.0148960
682.660	0.0148471
682.738	0.0148347
682.816	0.0148885
682.894	0.0149210
682.972	0.0149589
683.050	0.0147814
683.128	0.0149883
683.206	0.0148914
683.285	0.0149050
683.363	0.0148204
683.441	0.0148723
683.519	0.0148374
683.597	0.0149067
683.675	0.0149714
683.753	0.0148470
683.831	0.0148828
683.910	0.0149339
683.988	0.0149517
684.066	0.0149425
684.144	0.0148034
684.222	0.0148352
684.300	0.0148335
684.378	0.0148716
684.456	0.0149233
684.535	0.0148820
684.613	0.0149327
684.691	0.0147862
684.769	0.0150298
684.847	0.0149462
684.925	0.0148798
685.003	0.0148989
685.081	0.0149371
685.160	0.0149471
685.238	0.0149115
685.316	0.0149252
685.394	0.0148901
685.472	0.0149018
685.550	0.0148910
685.628	0.0149260
685.706	0.0148802
685.785	0.0149166
685.863	0.0150513
685.941	0.0149923
686.019	0.0149403
686.097	0.0149342
686.175	0.0149903
686.253	0.0150187
686.331	0.0149173
686.410	0.0148711
686.488	0.0149432
686.566	0.0150457
686.644	0.0149097
686.722	0.0149759
686.800	0.0150278
686.878	0.0149655
686.956	0.0148801
687.035	0.0148762
687.113	0.0148508
687.191	0.0150062
687.269	0.0149804
687.347	0.0149224
687.425	0.0149148
687.503	0.0149416
687.581	0.0149929
687.660	0.0149465
687.738	0.0149599
687.816	0.0148202
687.894	0.0150115
687.972	0.0149268
688.050	0.0148332
688.128	0.0149143
688.206	0.0149162
688.285	0.0149877
688.363	0.0149067
688.441	0.0150295
688.519	0.0150671
688.597	0.0150328
688.675	0.0149601
688.753	0.0148814
688.831	0.0148378
688.910	0.0149145
688.988	0.0149132
689.066	0.0149088
689.144	0.0149883
689.222	0.0149091
689.300	0.0148262
689.378	0.0148894
689.456	0.0149347
689.535	0.0148775
689.613	0.0149564
689.691	0.0149064
689.769	0.0148969
689.847	0.0149858
689.925	0.0150482
690.003	0.0149328
690.081	0.0148701
690.160	0.0149969
690.238	0.0149837
690.316	0.0149464
690.394	0.0149703
690.472	0.0148625
690.550	0.0148137
690.628	0.0149410
690.706	0.0149798
690.785	0.0149805
690.863	0.0148946
690.941	0.0148911
691.019	0.0151178
691.097	0.0150141
691.175	0.0148512
691.253	0.0147568
691.331	0.0149326
691.410	0.0149281
691.488	0.0148468
691.566	0.0148116
691.644	0.0148095
691.722	0.0150262
691.800	0.0149371
691.878	0.0148467
691.956	0.0149323
692.035	0.0151479
692.113	0.0149492
692.191	0.0148456
692.269	0.0150011
692.347	0.0149950
692.425	0.0148699
692.503	0.0147754
692.581	0.0149421
692.660	0.0148486
692.738	0.0148908
692.816	0.0150001
692.894	0.0149442
692.972	0.0149626
693.050	0.0147950
693.128	0.0149132
693.206	0.0150071
693.285	0.0148421
693.363	0.0148052
693.441	0.0149423
693.519	0.0149458
693.597	0.0149794
693.675	0.0150671
693.753	0.0150134
693.831	0.0149265
693.910	0.0148972
693.988	0.0147924
694.066	0.0148560
694.144	0.0149738
694.222	0.0149928
694.300	0.0149009
694.378	0.0149464
694.456	0.0148437
694.535	0.0148805
694.613	0.0149277
694.691	0.0149382
694.769	0.0148956
694.847	0.0148405
694.925	0.0149820
695.003	0.0151005
695.081	0.0149491
695.160	0.0149063
695.238	0.0150637
695.316	0.0150741
695.394	0.0148374
695.472	0.0147791
695.550	0.0148831
695.628	0.0149376
695.706	0.0148716
695.785	0.0148228
695.863	0.0149036
695.941	0.0149916
696.019	0.0149438
696.097	0.0148465
696.175	0.0149068
696.253	0.0150153
696.331	0.0149362
696.410	0.0150210
696.488	0.0149387
696.566	0.0150710
696.644	0.0149564
696.722	0.0149912
696.800	0.0148809
696.878	0.0150505
696.956	0.0148673
697.035	0.0149258
697.113	0.0150110
697.191	0.0149062
697.269	0.0149406
697.347	0.0148610
697.425	0.0150113
697.503	0.0148547
697.581	0.0149989
697.660	0.0148308
697.738	0.0148175
697.816	0.0149023
697.894	0.0149380
697.972	0.0148782
698.050	0.0149353
698.128	0.0148398
698.206	0.0148369
698.285	0.0150062
698.363	0.0151391
698.441	0.0148353
698.519	0.0148969
698.597	0.0149810
698.675	0.0148444
698.753	0.0148656
698.831	0.0150677
698.910	0.0148380
698.988	0.0149851
699.066	0.0149113
699.144	0.0150208
699.222	0.0148976
699.300	0.0148168
699.378	0.0149386
699.456	0.0149684
699.535	0.0150494
699.613	0.0149578
699.691	0.0148893
699.769	0.0148409
699.847	0.0149494
699.925	0.0149482
700.003	0.0149541
700.081	0.0150214
700.160	0.0147102
700.238	0.0149162
700.316	0.0149088
700.394	0.0150113
700.472	0.0147816
700.550	0.0147924
700.628	0.0147439
700.706	0.0149104
700.785	0.0149863
700.863	0.0149498
700.941	0.0149153
701.019	0.0149172
701.097	0.0148646
701.175	0.0149892
701.253	0.0148124
701.331	0.0149015
701.410	0.0148955
701.488	0.0148460
701.566	0.0147816
701.644	0.0147957
701.722	0.0149146
701.800	0.0150283
701.878	0.0148777
701.956	0.0148190
702.035	0.0148747
702.113	0.0150032
702.191	0.0148837
702.269	0.0148512
702.347	0.0149261
702.425	0.0149580
702.503	0.0150374
702.581	0.0150542
702.660	0.0148814
702.738	0.0148687
702.816	0.0149162
702.894	0.0148677
702.972	0.0148414
703.050	0.0149133
703.128	0.0149209
703.206	0.0149076
703.285	0.0148600
703.363	0.0148241
703.441	0.0147956
703.519	0.0148795
703.597	0.0149195
703.675	0.0150058
703.753	0.0150005
703.831	0.0147915
703.910	0.0149961
703.988	0.0151405
704.066	0.0150364
704.144	0.0149877
704.222	0.0149328
704.300	0.0149334
704.378	0.0149638
704.456	0.0148188
704.535	0.0150675
704.613	0.0149448
704.691	0.0150042
704.769	0.0148688
704.847	0.0149093
704.925	0.0148993
705.003	0.0149800
705.081	0.0149060
705.160	0.0148528
705.238	0.0148262
705.316	0.0148502
705.394	0.0148806
705.472	0.0149207
705.550	0.0148627
705.628	0.0150438
705.706	0.0150221
705.785	0.0149386
705.863	0.0150230
705.941	0.0151736
706.019	0.0152474
706.097	0.0151957
706.175	0.0151063
706.253	0.0153068
706.331	0.0153210
706.410	0.0151736
706.488	0.0153638
706.566	0.0150951
706.644	0.0153223
706.722	0.0152903
706.800	0.0153183
706.878	0.0151504
706.956	0.0151776
707.035	0.0150913
707.113	0.0150620
707.191	0.0151112
707.269	0.0150434
707.347	0.0149538
707.425	0.0150291
707.503	0.0148727
707.581	0.0148458
707.660	0.0148204
707.738	0.0148199
707.816	0.0147539
707.894	0.0146513
707.972	0.0146307
708.050	0.0145130
708.128	0.0146643
708.206	0.0145293
708.285	0.0144940
708.363	0.0144930
708.441	0.0145730
708.519	0.0143703
708.597	0.0143970
708.675	0.0142581
708.753	0.0142694
708.831	0.0141313
708.910	0.0137798
708.988	0.0136964
709.066	0.0134998
709.144	0.0132125
709.222	0.0129202
709.300	0.0126991
709.378	0.0126796
709.456	0.0126954
709.535	0.0129673
709.613	0.0134386
709.691	0.0140105
709.769	0.0146734
709.847	0.0153579
709.925	0.0159756
710.003	0.0164041
710.081	0.0166832
710.160	0.0168308
710.238	0.0170320
710.316	0.0165159
710.394	0.0161449
710.472	0.0158353
710.550	0.0151821
710.628	0.0149761
710.706	0.0147745
710.785	0.0146454
710.863	0.0147276
710.941	0.0148751
711.019	0.0153288
711.097	0.0156380
711.175	0.0159786
711.253	0.0164382
711.331	0.0168252
711.410	0.0170553
711.488	0.0173338
711.566	0.0173534
711.644	0.0175368
711.722	0.0174527
711.800	0.0174799
711.878	0.0175184
711.956	0.0173899
712.035	0.0171446
712.113	0.0169276
712.191	0.0166353
712.269	0.0160793
712.347	0.0155755
712.425	0.0151562
712.503	0.0146802
712.581	0.0143952
712.660	0.0138750
712.738	0.0135600
712.816	0.0131781
712.894	0.0129367
712.972	0.0125006
713.050	0.0119316
713.128	0.0111340
713.206	0.0105012
713.285	0.00977943
713.363	0.00930046
713.441	0.00874359
713.519	0.00846123
713.597	0.00840622
713.675	0.00871529
713.753	0.00895226
713.831	0.00991127
713.910	0.0110233
713.988	0.0122074
714.066	0.0135633
714.144	0.0151460
714.222	0.0169852
714.300	0.0185785
714.378	0.0202163
714.456	0.0216109
714.535	0.0226620
714.613	0.0235712
714.691	0.0240109
714.769	0.0240598
714.847	0.0239319
714.925	0.0235318
715.003	0.0226114
715.081	0.0214687
715.160	0.0204345
715.238	0.0188748
715.316	0.0173660
715.394	0.0160911
715.472	0.0146212
715.550	0.0135014
715.628	0.0125636
715.706	0.0115684
715.785	0.0109838
715.863	0.0104986
715.941	0.0101146
716.019	0.0100299
716.097	0.00992119
716.175	0.00989113
716.253	0.0100959
716.331	0.0103697
716.410	0.0104062
716.488	0.0106946
716.566	0.0110771
716.644	0.0114269
716.722	0.0118023
716.800	0.0120673
716.878	0.0124310
716.956	0.0128500
717.035	0.0134764
717.113	0.0139380
717.191	0.0144568
717.269	0.0149428
717.347	0.0155565
717.425	0.0161107
717.503	0.0165981
717.581	0.0172382
717.660	0.0178059
717.738	0.0180338
717.816	0.0184195
717.894	0.0185880
717.972	0.0186580
718.050	0.0188187
718.128	0.0185932
718.206	0.0185007
718.285	0.0183924
718.363	0.0182534
718.441	0.0180025
718.519	0.0178353
718.597	0.0175813
718.675	0.0172458
718.753	0.0171915
718.831	0.0170242
718.910	0.0166647
718.988	0.0164451
719.066	0.0161961
719.144	0.0158140
719.222	0.0153991
719.300	0.0149168
719.378	0.0147303
719.456	0.0142538
719.535	0.0137402
719.613	0.0132614
719.691	0.0128523
719.769	0.0126424
719.847	0.0122459
719.925	0.0118456
720.003	0.0114193
720.081	0.0112767
720.160	0.0111429
720.238	0.0108472
720.316	0.0108073
720.394	0.0109122
720.472	0.0110748
720.550	0.0110646
720.628	0.0113274
720.706	0.0113756
720.785	0.0117891
720.863	0.0119208
720.941	0.0122743
721.019	0.0126346
721.097	0.0129733
721.175	0.0134493
721.253	0.0137814
721.331	0.0141856
721.410	0.0147422
721.488	0.0153072
721.566	0.0157457
721.644	0.0161571
721.722	0.0166698
721.800	0.0170393
721.878	0.0172147
721.956	0.0174740
722.035	0.0176801
722.113	0.0177989
722.191	0.0177892
722.269	0.0178410
722.347	0.0178825
722.425	0.0179359
722.503	0.0178569
722.581	0.0180666
722.660	0.0178349
722.738	0.0176274
722.816	0.0177081
722.894	0.0175377
722.972	0.0175043
723.050	0.0171538
723.128	0.0171641
723.206	0.0167999
723.285	0.0166398
723.363	0.0165487
723.441	0.0162431
723.519	0.0161344
723.597	0.0157838
723.675	0.0156123
723.753	0.0151225
723.831	0.0148811
723.910	0.0143388
723.988	0.0142523
724.066	0.0138309
724.144	0.0135715
724.222	0.0132109
724.300	0.0129753
724.378	0.0126543
724.456	0.0123491
724.535	0.0122628
724.613	0.0118854
724.691	0.0117944
724.769	0.0117014
724.847	0.0116879
724.925	0.0117523
725.003	0.0118575
725.081	0.0119158
725.160	0.0121246
725.238	0.0123049
725.316	0.0125081
725.394	0.0125967
725.472	0.0127638
725.550	0.0130424
725.628	0.0133329
725.706	0.0134530
725.785	0.0137466
725.863	0.0140704
725.941	0.0144476
726.019	0.0146602
726.097	0.0149094
726.175	0.0152146
726.253	0.0154868
726.331	0.0157343
726.410	0.0160715
726.488	0.0164111
726.566	0.0165214
726.644	0.0166277
726.722	0.0170870
726.800	0.0170457
726.878	0.0172835
726.956	0.0172076
727.035	0.0173212
727.113	0.0172361
727.191	0.0171160
727.269	0.0170482
727.347	0.0169948
727.425	0.0168504
727.503	0.0167864
727.581	0.0166968
727.660	0.0166677
727.738	0.0167678
727.816	0.0168351
727.894	0.0167677
727.972	0.0168236
728.050	0.0167509
728.128	0.0166229
728.206	0.0166309
728.285	0.0164336
728.363	0.0163770
728.441	0.0163231
728.519	0.0161134
728.597	0.0159764
728.675	0.0159157
728.753	0.0157636
728.831	0.0156262
728.910	0.0152744
728.988	0.0150014
729.066	0.0149538
729.144	0.0147354
729.222	0.0143700
729.300	0.0141561
729.378	0.0140991
729.456	0.0138461
729.535	0.0135747
729.613	0.0133347
729.691	0.0132132
729.769	0.0131746
729.847	0.0129135
729.925	0.0127600
730.003	0.0126823
730.081	0.0124980
730.160	0.0123199
730.238	0.0123919
730.316	0.0122588
730.394	0.0122359
730.472	0.0121866
730.550	0.0121832
730.628	0.0121615
730.706	0.0124220
730.785	0.0123001
730.863	0.0125309
730.941	0.0126232
731.019	0.0127441
731.097	0.0129778
731.175	0.0132749
731.253	0.0135144
731.331	0.0135930
731.410	0.0139825
731.488	0.0143405
731.566	0.0145862
731.644	0.0150206
731.722	0.0151139
731.800	0.0155502
731.878	0.0157565
731.956	0.0160665
732.035	0.0163152
732.113	0.0166265
732.191	0.0168864
732.269	0.0170586
732.347	0.0172559
732.425	0.0175153
732.503	0.0177157
732.581	0.0175864
732.660	0.0177037
732.738	0.0176826
732.816	0.0177154
732.894	0.0176863
732.972	0.0177482
733.050	0.0176449
733.128	0.0174259
733.206	0.0173833
733.285	0.0173161
733.363	0.0169688
733.441	0.0168679
733.519	0.0168552
733.597	0.0165064
733.675	0.0161648
733.753	0.0160171
733.831	0.0158101
733.910	0.0156106
733.988	0.0154725
734.066	0.0152892
734.144	0.0150402
734.222	0.0151137
734.300	0.0149676
734.378	0.0146039
734.456	0.0144138
734.535	0.0142808
734.613	0.0142937
734.691	0.0141223
734.769	0.0138558
734.847	0.0137226
734.925	0.0136071
735.003	0.0135134
735.081	0.0133189
735.160	0.0131721
735.238	0.0132037
735.316	0.0131455
735.394	0.0130274
735.472	0.0130561
735.550	0.0129787
735.628	0.0128040
735.706	0.0129432
735.785	0.0131490
735.863	0.0130467
735.941	0.0131120
736.019	0.0131373
736.097	0.0132457
736.175	0.0130915
736.253	0.0133961
736.331	0.0133978
736.410	0.0134644
736.488	0.0137246
736.566	0.0137531
736.644	0.0138806
736.722	0.0142263
736.800	0.0143354
736.878	0.0144769
736.956	0.0145287
737.035	0.0146784
737.113	0.0149515
737.191	0.0149670
737.269	0.0151109
737.347	0.0152173
737.425	0.0153420
737.503	0.0154529
737.581	0.0155260
737.660	0.0155550
737.738	0.0155337
737.816	0.0157542
737.894	0.0159022
737.972	0.0159983
738.050	0.0157868
738.128	0.0157729
738.206	0.0160616
738.285	0.0160004
738.363	0.0160889
738.441	0.0161716
738.519	0.0163902
738.597	0.0164930
738.675	0.0162917
738.753	0.0163716
738.831	0.0164034
738.910	0.0163914
738.988	0.0163256
739.066	0.0162521
739.144	0.0161557
739.222	0.0161382
739.300	0.0159986
739.378	0.0159493
739.456	0.0158160
739.535	0.0159064
739.613	0.0157426
739.691	0.0154770
739.769	0.0155824
739.847	0.0155619
739.925	0.0154891
740.003	0.0154082
740.081	0.0153761
740.160	0.0153535
740.238	0.0152293
740.316	0.0152056
740.394	0.0151464
740.472	0.0148978
740.550	0.0147770
740.628	0.0148717
740.706	0.0148320
740.785	0.0146218
740.863	0.0145791
740.941	0.0142964
741.019	0.0140892
741.097	0.0139492
741.175	0.0138338
741.253	0.0138007
741.331	0.0136678
741.410	0.0135984
741.488	0.0134177
741.566	0.0133335
741.644	0.0134156
741.722	0.0132665
741.800	0.0132909
741.878	0.0134819
741.956	0.0134551
742.035	0.0133536
742.113	0.0134468
742.191	0.0134790
742.269	0.0135932
742.347	0.0136293
742.425	0.0137808
742.503	0.0136659
742.581	0.0136890
742.660	0.0138111
742.738	0.0138969
742.816	0.0139784
742.894	0.0140337
742.972	0.0139639
743.050	0.0140070
743.128	0.0140782
743.206	0.0141290
743.285	0.0142462
743.363	0.0141875
743.441	0.0143770
743.519	0.0145631
743.597	0.0145814
743.675	0.0147256
743.753	0.0148679
743.831	0.0150454
743.910	0.0151222
743.988	0.0153278
744.066	0.0154750
744.144	0.0155860
744.222	0.0157874
744.300	0.0159508
744.378	0.0159638
744.456	0.0161406
744.535	0.0163284
744.613	0.0164422
744.691	0.0164865
744.769	0.0166539
744.847	0.0166517
744.925	0.0167139
745.003	0.0167542
745.081	0.0166581
745.160	0.0167291
745.238	0.0165607
745.316	0.0164968
745.394	0.0164703
745.472	0.0164027
745.550	0.0161938
745.628	0.0161223
745.706	0.0159680
