05/03/2022	20:45:43	Ver.	4.1	UNKNOWN
Optical Delay	660.003261	Delta X		0.078125	Sweeps	1	Scan Rate	0/0
Coordinates	Axis 1	NaN	Axis 2	NaN	Axis 3	NaN	Axis 4	NaN	Axis 5	NaN	Axis 6	0.000000
TX Power	0.000000	RX Power	0.000000

660.003	0.0140211
660.081	0.0141010
660.160	0.0140939
660.238	0.0140784
660.316	0.0138702
660.394	0.0139783
660.472	0.0139656
660.550	0.0140295
660.628	0.0140180
660.706	0.0140590
660.785	0.0139953
660.863	0.0141199
660.941	0.0139071
661.019	0.0140222
661.097	0.0139948
661.175	0.0139899
661.253	0.0141258
661.331	0.0140125
661.410	0.0139636
661.488	0.0139554
661.566	0.0140274
661.644	0.0139404
661.722	0.0139321
661.800	0.0140552
661.878	0.0139842
661.956	0.0139740
662.035	0.0139840
662.113	0.0139624
662.191	0.0140608
662.269	0.0139706
662.347	0.0140257
662.425	0.0141592
662.503	0.0140337
662.581	0.0139954
662.660	0.0140374
662.738	0.0140094
662.816	0.0139518
662.894	0.0140718
662.972	0.0141582
663.050	0.0141169
663.128	0.0140757
663.206	0.0139604
663.285	0.0138982
663.363	0.0141442
663.441	0.0142487
663.519	0.0140800
663.597	0.0140648
663.675	0.0140990
663.753	0.0141118
663.831	0.0141322
663.910	0.0141400
663.988	0.0141196
664.066	0.0140311
664.144	0.0141165
664.222	0.0140833
664.300	0.0141019
664.378	0.0141643
664.456	0.0141838
664.535	0.0140764
664.613	0.0141850
664.691	0.0141753
664.769	0.0141394
664.847	0.0141619
664.925	0.0141020
665.003	0.0142007
665.081	0.0141517
665.160	0.0141231
665.238	0.0142144
665.316	0.0143303
665.394	0.0141148
665.472	0.0141730
665.550	0.0140029
665.628	0.0139201
665.706	0.0140916
665.785	0.0141818
665.863	0.0141488
665.941	0.0140157
666.019	0.0140730
666.097	0.0142132
666.175	0.0141366
666.253	0.0141909
666.331	0.0142288
666.410	0.0141166
666.488	0.0141308
666.566	0.0140960
666.644	0.0140382
666.722	0.0140947
666.800	0.0140008
666.878	0.0141310
666.956	0.0141293
667.035	0.0142091
667.113	0.0140857
667.191	0.0140978
667.269	0.0140401
667.347	0.0141567
667.425	0.0141737
667.503	0.0140139
667.581	0.0140511
667.660	0.0142307
667.738	0.0141548
667.816	0.0141676
667.894	0.0141856
667.972	0.0140046
668.050	0.0140827
668.128	0.0141459
668.206	0.0140811
668.285	0.0141884
668.363	0.0140574
668.441	0.0140727
668.519	0.0139922
668.597	0.0140979
668.675	0.0139897
668.753	0.0141299
668.831	0.0141946
668.910	0.0140417
668.988	0.0141373
669.066	0.0140894
669.144	0.0140353
669.222	0.0139530
669.300	0.0138954
669.378	0.0138304
669.456	0.0140025
669.535	0.0140730
669.613	0.0141066
669.691	0.0140157
669.769	0.0141000
669.847	0.0139984
669.925	0.0140273
670.003	0.0140333
670.081	0.0140074
670.160	0.0140811
670.238	0.0140912
670.316	0.0139615
670.394	0.0139825
670.472	0.0141047
670.550	0.0140831
670.628	0.0139266
670.706	0.0140003
670.785	0.0140422
670.863	0.0139310
670.941	0.0140240
671.019	0.0139190
671.097	0.0140384
671.175	0.0139691
671.253	0.0139211
671.331	0.0139845
671.410	0.0140814
671.488	0.0140652
671.566	0.0139910
671.644	0.0138580
671.722	0.0139901
671.800	0.0139600
671.878	0.0139920
671.956	0.0138573
672.035	0.0140291
672.113	0.0140703
672.191	0.0139821
672.269	0.0139590
672.347	0.0139928
672.425	0.0138602
672.503	0.0139417
672.581	0.0139651
672.660	0.0138494
672.738	0.0139909
672.816	0.0138814
672.894	0.0140416
672.972	0.0139910
673.050	0.0139846
673.128	0.0139377
673.206	0.0140297
673.285	0.0139384
673.363	0.0140501
673.441	0.0139417
673.519	0.0138210
673.597	0.0140080
673.675	0.0139842
673.753	0.0140400
673.831	0.0140084
673.910	0.0139767
673.988	0.0140070
674.066	0.0139249
674.144	0.0139017
674.222	0.0140231
674.300	0.0140189
674.378	0.0137306
674.456	0.0137445
674.535	0.0139154
674.613	0.0140108
674.691	0.0137354
674.769	0.0137939
674.847	0.0138490
674.925	0.0139614
675.003	0.0139416
675.081	0.0138806
675.160	0.0139053
675.238	0.0137496
675.316	0.0138788
675.394	0.0139196
675.472	0.0138567
675.550	0.0137318
675.628	0.0138860
675.706	0.0139513
675.785	0.0138309
675.863	0.0139502
675.941	0.0138805
676.019	0.0138688
676.097	0.0138366
676.175	0.0138751
676.253	0.0138985
676.331	0.0139005
676.410	0.0138447
676.488	0.0139537
676.566	0.0138184
676.644	0.0137715
676.722	0.0138091
676.800	0.0138174
676.878	0.0138839
676.956	0.0138620
677.035	0.0138191
677.113	0.0138755
677.191	0.0139030
677.269	0.0139698
677.347	0.0138136
677.425	0.0138332
677.503	0.0137251
677.581	0.0137875
677.660	0.0139236
677.738	0.0139128
677.816	0.0138608
677.894	0.0138776
677.972	0.0137699
678.050	0.0136784
678.128	0.0138504
678.206	0.0137426
678.285	0.0137720
678.363	0.0138836
678.441	0.0138818
678.519	0.0138451
678.597	0.0138887
678.675	0.0138556
678.753	0.0137470
678.831	0.0138026
678.910	0.0139172
678.988	0.0138194
679.066	0.0138162
679.144	0.0138480
679.222	0.0138427
679.300	0.0138494
679.378	0.0139321
679.456	0.0139039
679.535	0.0138749
679.613	0.0139899
679.691	0.0138416
679.769	0.0139632
679.847	0.0140472
679.925	0.0139481
680.003	0.0138539
680.081	0.0139941
680.160	0.0139863
680.238	0.0138799
680.316	0.0139194
680.394	0.0138665
680.472	0.0139513
680.550	0.0140575
680.628	0.0140387
680.706	0.0138778
680.785	0.0139215
680.863	0.0139993
680.941	0.0138803
681.019	0.0141154
681.097	0.0140372
681.175	0.0142377
681.253	0.0140714
681.331	0.0140453
681.410	0.0141857
681.488	0.0141021
681.566	0.0139671
681.644	0.0141676
681.722	0.0141573
681.800	0.0140891
681.878	0.0140936
681.956	0.0142030
682.035	0.0141532
682.113	0.0141589
682.191	0.0140289
682.269	0.0141499
682.347	0.0140956
682.425	0.0141524
682.503	0.0139394
682.581	0.0139183
682.660	0.0139812
682.738	0.0138855
682.816	0.0139012
682.894	0.0138647
682.972	0.0139736
683.050	0.0140453
683.128	0.0138308
683.206	0.0139561
683.285	0.0137856
683.363	0.0138303
683.441	0.0139261
683.519	0.0139213
683.597	0.0138902
683.675	0.0139167
683.753	0.0140296
683.831	0.0140082
683.910	0.0139109
683.988	0.0137985
684.066	0.0138129
684.144	0.0138348
684.222	0.0139077
684.300	0.0139574
684.378	0.0138734
684.456	0.0138422
684.535	0.0139098
684.613	0.0140118
684.691	0.0140679
684.769	0.0139927
684.847	0.0140622
684.925	0.0139754
685.003	0.0141328
685.081	0.0139294
685.160	0.0139804
685.238	0.0141431
685.316	0.0141068
685.394	0.0140517
685.472	0.0140552
685.550	0.0140372
685.628	0.0137897
685.706	0.0138811
685.785	0.0141299
685.863	0.0141213
685.941	0.0140485
686.019	0.0140650
686.097	0.0140373
686.175	0.0140355
686.253	0.0140380
686.331	0.0139464
686.410	0.0138477
686.488	0.0140338
686.566	0.0141083
686.644	0.0140253
686.722	0.0141267
686.800	0.0139349
686.878	0.0139236
686.956	0.0139798
687.035	0.0140897
687.113	0.0139764
687.191	0.0140360
687.269	0.0140279
687.347	0.0139888
687.425	0.0139348
687.503	0.0140446
687.581	0.0140290
687.660	0.0139244
687.738	0.0141260
687.816	0.0141522
687.894	0.0141220
687.972	0.0139906
688.050	0.0139873
688.128	0.0142127
688.206	0.0141171
688.285	0.0140755
688.363	0.0140128
688.441	0.0141645
688.519	0.0141531
688.597	0.0140740
688.675	0.0139520
688.753	0.0140681
688.831	0.0139370
688.910	0.0139725
688.988	0.0140314
689.066	0.0138211
689.144	0.0140044
689.222	0.0139849
689.300	0.0139654
689.378	0.0139680
689.456	0.0139984
689.535	0.0140753
689.613	0.0139663
689.691	0.0140462
689.769	0.0141821
689.847	0.0141026
689.925	0.0139799
690.003	0.0138853
690.081	0.0139922
690.160	0.0139682
690.238	0.0140790
690.316	0.0139835
690.394	0.0139878
690.472	0.0141563
690.550	0.0141750
690.628	0.0141041
690.706	0.0142376
690.785	0.0142093
690.863	0.0141471
690.941	0.0141587
691.019	0.0139936
691.097	0.0141916
691.175	0.0141718
691.253	0.0141046
691.331	0.0141284
691.410	0.0141473
691.488	0.0141484
691.566	0.0141738
691.644	0.0142267
691.722	0.0141998
691.800	0.0141048
691.878	0.0140078
691.956	0.0140072
692.035	0.0140084
692.113	0.0140800
692.191	0.0139382
692.269	0.0140529
692.347	0.0140173
692.425	0.0140311
692.503	0.0139676
692.581	0.0139145
692.660	0.0141030
692.738	0.0141981
692.816	0.0141428
692.894	0.0141376
692.972	0.0141803
693.050	0.0140657
693.128	0.0141138
693.206	0.0142013
693.285	0.0140897
693.363	0.0142078
693.441	0.0141104
693.519	0.0139619
693.597	0.0139788
693.675	0.0138547
693.753	0.0140182
693.831	0.0138882
693.910	0.0138858
693.988	0.0139189
694.066	0.0139038
694.144	0.0138487
694.222	0.0138108
694.300	0.0139273
694.378	0.0140044
694.456	0.0140248
694.535	0.0139584
694.613	0.0139005
694.691	0.0141489
694.769	0.0140075
694.847	0.0140612
694.925	0.0140369
695.003	0.0139658
695.081	0.0140133
695.160	0.0139964
695.238	0.0139783
695.316	0.0139737
695.394	0.0138637
695.472	0.0138290
695.550	0.0139024
695.628	0.0139154
695.706	0.0138296
695.785	0.0137141
695.863	0.0138179
695.941	0.0139381
696.019	0.0138352
696.097	0.0137811
696.175	0.0137174
696.253	0.0138702
696.331	0.0140417
696.410	0.0139535
696.488	0.0138287
696.566	0.0139592
696.644	0.0140402
696.722	0.0139445
696.800	0.0138869
696.878	0.0138965
696.956	0.0139087
697.035	0.0138977
697.113	0.0139711
697.191	0.0139528
697.269	0.0139777
697.347	0.0140353
697.425	0.0138042
697.503	0.0140043
697.581	0.0140051
697.660	0.0138338
697.738	0.0137879
697.816	0.0138652
697.894	0.0138855
697.972	0.0139158
698.050	0.0139410
698.128	0.0138680
698.206	0.0138138
698.285	0.0139400
698.363	0.0138934
698.441	0.0139147
698.519	0.0138686
698.597	0.0136826
698.675	0.0139272
698.753	0.0139324
698.831	0.0139349
698.910	0.0139684
698.988	0.0140087
699.066	0.0140374
699.144	0.0141316
699.222	0.0139751
699.300	0.0141414
699.378	0.0139530
699.456	0.0140574
699.535	0.0139522
699.613	0.0138608
699.691	0.0138553
699.769	0.0139558
699.847	0.0139228
699.925	0.0137662
700.003	0.0139191
700.081	0.0139531
700.160	0.0138206
700.238	0.0139533
700.316	0.0139859
700.394	0.0139766
700.472	0.0139256
700.550	0.0139343
700.628	0.0139391
700.706	0.0139822
700.785	0.0138792
700.863	0.0139664
700.941	0.0139268
701.019	0.0139741
701.097	0.0138239
701.175	0.0138393
701.253	0.0138440
701.331	0.0140088
701.410	0.0139124
701.488	0.0137054
701.566	0.0138270
701.644	0.0139330
701.722	0.0137350
701.800	0.0138796
701.878	0.0139882
701.956	0.0138400
702.035	0.0138430
702.113	0.0138646
702.191	0.0137203
702.269	0.0138741
702.347	0.0139534
702.425	0.0139944
702.503	0.0139371
702.581	0.0139786
702.660	0.0139394
702.738	0.0139901
702.816	0.0138703
702.894	0.0138914
702.972	0.0139931
703.050	0.0138148
703.128	0.0138741
703.206	0.0139339
703.285	0.0139643
703.363	0.0139710
703.441	0.0141251
703.519	0.0139682
703.597	0.0139928
703.675	0.0140462
703.753	0.0140247
703.831	0.0138964
703.910	0.0139400
703.988	0.0140525
704.066	0.0140718
704.144	0.0139651
704.222	0.0140546
704.300	0.0140372
704.378	0.0139523
704.456	0.0142348
704.535	0.0140517
704.613	0.0140029
704.691	0.0140742
704.769	0.0141632
704.847	0.0139948
704.925	0.0140601
705.003	0.0140495
705.081	0.0140693
705.160	0.0140796
705.238	0.0141315
705.316	0.0140046
705.394	0.0140743
705.472	0.0139831
705.550	0.0140236
705.628	0.0141961
705.706	0.0141255
705.785	0.0139065
705.863	0.0140041
705.941	0.0139919
706.019	0.0141110
706.097	0.0140522
706.175	0.0140958
706.253	0.0140139
706.331	0.0139885
706.410	0.0139747
706.488	0.0139947
706.566	0.0139133
706.644	0.0139547
706.722	0.0139993
706.800	0.0140652
706.878	0.0141180
706.956	0.0140710
707.035	0.0141917
707.113	0.0142835
707.191	0.0139579
707.269	0.0139998
707.347	0.0141334
707.425	0.0140854
707.503	0.0141900
707.581	0.0141704
707.660	0.0140360
707.738	0.0139645
707.816	0.0140094
707.894	0.0138406
707.972	0.0140112
708.050	0.0142342
708.128	0.0139154
708.206	0.0139801
708.285	0.0139854
708.363	0.0138196
708.441	0.0140894
708.519	0.0139444
708.597	0.0140196
708.675	0.0140064
708.753	0.0140128
708.831	0.0139232
708.910	0.0138914
708.988	0.0139895
709.066	0.0139971
709.144	0.0140408
709.222	0.0140260
709.300	0.0139371
709.378	0.0139375
709.456	0.0138942
709.535	0.0139546
709.613	0.0140456
709.691	0.0139258
709.769	0.0139043
709.847	0.0139894
709.925	0.0139298
710.003	0.0139022
710.081	0.0140009
710.160	0.0139473
710.238	0.0138852
710.316	0.0139776
710.394	0.0138734
710.472	0.0140118
710.550	0.0139581
710.628	0.0139444
710.706	0.0139635
710.785	0.0141319
710.863	0.0141927
710.941	0.0139262
711.019	0.0141051
711.097	0.0139596
711.175	0.0141122
711.253	0.0140882
711.331	0.0140916
711.410	0.0140713
711.488	0.0140896
711.566	0.0141438
711.644	0.0140179
711.722	0.0139636
711.800	0.0139095
711.878	0.0141080
711.956	0.0140716
712.035	0.0140022
712.113	0.0140368
712.191	0.0140045
712.269	0.0140079
712.347	0.0141586
712.425	0.0140327
712.503	0.0140188
712.581	0.0139756
712.660	0.0141389
712.738	0.0141029
712.816	0.0140283
712.894	0.0140868
712.972	0.0139892
713.050	0.0138802
713.128	0.0139709
713.206	0.0140203
713.285	0.0138705
713.363	0.0139700
713.441	0.0138226
713.519	0.0138074
713.597	0.0139165
713.675	0.0139058
713.753	0.0139133
713.831	0.0140240
713.910	0.0140604
713.988	0.0140326
714.066	0.0140739
714.144	0.0141407
714.222	0.0139636
714.300	0.0140715
714.378	0.0140485
714.456	0.0139921
714.535	0.0140113
714.613	0.0140691
714.691	0.0140757
714.769	0.0141905
714.847	0.0138522
714.925	0.0138869
715.003	0.0140940
715.081	0.0140659
715.160	0.0138408
715.238	0.0138982
715.316	0.0140698
715.394	0.0139938
715.472	0.0139442
715.550	0.0139947
715.628	0.0140588
715.706	0.0141060
715.785	0.0140862
715.863	0.0140689
715.941	0.0141324
716.019	0.0138640
716.097	0.0139566
716.175	0.0138901
716.253	0.0140412
716.331	0.0140134
716.410	0.0141102
716.488	0.0140102
716.566	0.0139387
716.644	0.0139491
716.722	0.0139800
716.800	0.0138572
716.878	0.0140431
716.956	0.0140712
717.035	0.0140858
717.113	0.0139475
717.191	0.0140425
717.269	0.0141656
717.347	0.0139560
717.425	0.0140599
717.503	0.0140959
717.581	0.0139104
717.660	0.0140988
717.738	0.0140341
717.816	0.0139438
717.894	0.0140034
717.972	0.0140731
718.050	0.0140848
718.128	0.0139191
718.206	0.0139915
718.285	0.0140462
718.363	0.0141790
718.441	0.0140762
718.519	0.0140027
718.597	0.0140974
718.675	0.0140475
718.753	0.0140417
718.831	0.0140667
718.910	0.0140273
718.988	0.0140018
719.066	0.0140115
719.144	0.0138335
719.222	0.0138863
719.300	0.0140609
719.378	0.0138072
719.456	0.0139057
719.535	0.0139754
719.613	0.0138326
719.691	0.0139412
719.769	0.0139417
719.847	0.0138209
719.925	0.0137943
720.003	0.0139424
720.081	0.0138642
720.160	0.0139789
720.238	0.0139491
720.316	0.0137798
720.394	0.0139027
720.472	0.0137772
720.550	0.0139513
720.628	0.0138999
720.706	0.0139527
720.785	0.0138747
720.863	0.0138645
720.941	0.0140060
721.019	0.0139525
721.097	0.0137825
721.175	0.0139579
721.253	0.0139543
721.331	0.0140076
721.410	0.0138875
721.488	0.0138476
721.566	0.0138866
721.644	0.0137319
721.722	0.0137946
721.800	0.0138823
721.878	0.0139551
721.956	0.0138157
722.035	0.0138662
722.113	0.0138728
722.191	0.0138726
722.269	0.0139098
722.347	0.0140012
722.425	0.0141481
722.503	0.0140443
722.581	0.0139376
722.660	0.0140845
722.738	0.0139301
722.816	0.0140925
722.894	0.0140166
722.972	0.0139966
723.050	0.0138760
723.128	0.0140596
723.206	0.0139949
723.285	0.0139078
723.363	0.0139105
723.441	0.0140259
723.519	0.0138453
723.597	0.0139211
723.675	0.0139601
723.753	0.0140287
723.831	0.0139943
723.910	0.0140098
723.988	0.0139935
724.066	0.0139854
724.144	0.0140625
724.222	0.0139925
724.300	0.0140166
724.378	0.0141486
724.456	0.0141229
724.535	0.0141782
724.613	0.0139616
724.691	0.0141298
724.769	0.0142097
724.847	0.0141965
724.925	0.0141305
725.003	0.0141598
725.081	0.0142641
725.160	0.0140891
725.238	0.0140487
725.316	0.0142883
725.394	0.0141445
725.472	0.0140654
725.550	0.0140931
725.628	0.0140541
725.706	0.0140753
725.785	0.0140623
725.863	0.0139480
725.941	0.0141707
726.019	0.0140825
726.097	0.0140484
726.175	0.0141344
726.253	0.0141592
726.331	0.0139087
726.410	0.0139820
726.488	0.0140909
726.566	0.0140706
726.644	0.0139756
726.722	0.0140054
726.800	0.0141902
726.878	0.0140357
726.956	0.0141445
727.035	0.0140284
727.113	0.0140001
727.191	0.0140070
727.269	0.0139039
727.347	0.0139534
727.425	0.0139849
727.503	0.0141409
727.581	0.0141010
727.660	0.0141589
727.738	0.0139697
727.816	0.0140712
727.894	0.0140559
727.972	0.0139596
728.050	0.0139806
728.128	0.0139902
728.206	0.0139226
728.285	0.0140212
728.363	0.0140910
728.441	0.0140218
728.519	0.0139098
728.597	0.0140618
728.675	0.0140137
728.753	0.0140150
728.831	0.0139512
728.910	0.0140011
728.988	0.0140685
729.066	0.0139701
729.144	0.0139959
729.222	0.0139562
729.300	0.0140735
729.378	0.0140211
729.456	0.0140153
729.535	0.0140218
729.613	0.0140858
729.691	0.0140260
729.769	0.0139045
729.847	0.0139757
729.925	0.0139417
730.003	0.0141367
730.081	0.0141299
730.160	0.0139876
730.238	0.0140329
730.316	0.0140383
730.394	0.0138345
730.472	0.0139253
730.550	0.0140884
730.628	0.0139349
730.706	0.0140528
730.785	0.0141252
730.863	0.0139731
730.941	0.0139762
731.019	0.0143137
731.097	0.0140375
731.175	0.0141051
731.253	0.0140471
731.331	0.0140756
731.410	0.0140630
731.488	0.0140702
731.566	0.0142407
731.644	0.0140726
731.722	0.0141210
731.800	0.0141511
731.878	0.0142987
731.956	0.0141774
732.035	0.0141854
732.113	0.0143755
732.191	0.0142487
732.269	0.0141073
732.347	0.0141173
732.425	0.0140831
732.503	0.0141832
732.581	0.0140842
732.660	0.0141520
732.738	0.0141258
732.816	0.0140581
732.894	0.0140761
732.972	0.0140131
733.050	0.0141385
733.128	0.0141199
733.206	0.0142104
733.285	0.0140228
733.363	0.0139165
733.441	0.0140649
733.519	0.0140804
733.597	0.0139961
733.675	0.0140425
733.753	0.0139788
733.831	0.0141028
733.910	0.0140318
733.988	0.0140340
734.066	0.0139552
734.144	0.0139441
734.222	0.0141669
734.300	0.0141093
734.378	0.0140187
734.456	0.0140305
734.535	0.0139877
734.613	0.0140486
734.691	0.0140662
734.769	0.0140688
734.847	0.0139625
734.925	0.0139762
735.003	0.0139792
735.081	0.0140227
735.160	0.0140774
735.238	0.0139379
735.316	0.0138145
735.394	0.0140268
735.472	0.0140469
735.550	0.0138762
735.628	0.0139221
735.706	0.0140435
735.785	0.0140597
735.863	0.0139831
735.941	0.0140700
736.019	0.0140670
736.097	0.0140319
736.175	0.0138929
736.253	0.0140299
736.331	0.0139509
736.410	0.0140186
736.488	0.0139825
736.566	0.0140270
736.644	0.0140147
736.722	0.0140665
736.800	0.0139105
736.878	0.0140071
736.956	0.0139727
737.035	0.0139533
737.113	0.0140255
737.191	0.0140492
737.269	0.0139947
737.347	0.0138863
737.425	0.0139864
737.503	0.0138905
737.581	0.0140090
737.660	0.0139474
737.738	0.0138705
737.816	0.0139036
737.894	0.0139204
737.972	0.0139065
738.050	0.0137470
738.128	0.0139989
738.206	0.0138216
738.285	0.0140814
738.363	0.0139700
738.441	0.0140797
738.519	0.0140181
738.597	0.0139655
738.675	0.0139831
738.753	0.0140557
738.831	0.0141512
738.910	0.0140527
738.988	0.0140432
739.066	0.0141146
739.144	0.0140439
739.222	0.0140366
739.300	0.0141336
739.378	0.0140265
739.456	0.0140168
739.535	0.0140450
739.613	0.0139178
739.691	0.0140285
739.769	0.0139258
739.847	0.0140582
739.925	0.0139526
740.003	0.0138773
740.081	0.0139602
740.160	0.0140518
740.238	0.0140078
740.316	0.0138702
740.394	0.0139590
740.472	0.0139034
740.550	0.0137067
740.628	0.0138432
740.706	0.0138216
740.785	0.0139262
740.863	0.0137712
740.941	0.0138998
741.019	0.0140137
741.097	0.0138798
741.175	0.0137819
741.253	0.0139014
741.331	0.0138657
741.410	0.0139018
741.488	0.0138935
741.566	0.0139095
741.644	0.0139507
741.722	0.0140365
741.800	0.0138139
741.878	0.0138489
741.956	0.0139773
742.035	0.0139129
742.113	0.0138822
742.191	0.0139886
742.269	0.0138404
742.347	0.0138716
742.425	0.0137791
742.503	0.0138968
742.581	0.0139201
742.660	0.0139925
742.738	0.0139048
742.816	0.0137586
742.894	0.0139623
742.972	0.0139090
743.050	0.0139377
743.128	0.0140279
743.206	0.0140034
743.285	0.0139211
743.363	0.0139767
743.441	0.0139568
743.519	0.0139439
743.597	0.0137054
743.675	0.0138927
743.753	0.0139845
743.831	0.0140067
743.910	0.0138818
743.988	0.0140133
744.066	0.0139453
744.144	0.0138850
744.222	0.0139344
744.300	0.0140457
744.378	0.0139227
744.456	0.0139205
744.535	0.0138048
744.613	0.0140311
744.691	0.0138219
744.769	0.0138500
744.847	0.0139693
744.925	0.0139253
745.003	0.0140475
745.081	0.0138866
745.160	0.0138468
745.238	0.0139104
745.316	0.0140343
745.394	0.0142181
745.472	0.0141968
745.550	0.0141009
745.628	0.0140176
745.706	0.0140052
