05/03/2022	20:47:38	Ver.	4.1	UNKNOWN
Optical Delay	660.003261	Delta X		0.078125	Sweeps	1	Scan Rate	0/0
Coordinates	Axis 1	NaN	Axis 2	NaN	Axis 3	NaN	Axis 4	NaN	Axis 5	NaN	Axis 6	0.000000
TX Power	0.000000	RX Power	0.000000

660.003	0.0145734
660.081	0.0145081
660.160	0.0144681
660.238	0.0145831
660.316	0.0145657
660.394	0.0145511
660.472	0.0145106
660.550	0.0145140
660.628	0.0144227
660.706	0.0144841
660.785	0.0145225
660.863	0.0145425
660.941	0.0146432
661.019	0.0146705
661.097	0.0145010
661.175	0.0145354
661.253	0.0145953
661.331	0.0146091
661.410	0.0144974
661.488	0.0146011
661.566	0.0144478
661.644	0.0144743
661.722	0.0145997
661.800	0.0145688
661.878	0.0145182
661.956	0.0146579
662.035	0.0145679
662.113	0.0144921
662.191	0.0146020
662.269	0.0146999
662.347	0.0146394
662.425	0.0144617
662.503	0.0145942
662.581	0.0145493
662.660	0.0143941
662.738	0.0145181
662.816	0.0145585
662.894	0.0144327
662.972	0.0145647
663.050	0.0145577
663.128	0.0146542
663.206	0.0145071
663.285	0.0145233
663.363	0.0145425
663.441	0.0145026
663.519	0.0145396
663.597	0.0147849
663.675	0.0146447
663.753	0.0145921
663.831	0.0144911
663.910	0.0145561
663.988	0.0145468
664.066	0.0145654
664.144	0.0146347
664.222	0.0145046
664.300	0.0144670
664.378	0.0146160
664.456	0.0145493
664.535	0.0144750
664.613	0.0145164
664.691	0.0145074
664.769	0.0144209
664.847	0.0144463
664.925	0.0145261
665.003	0.0144903
665.081	0.0145474
665.160	0.0144115
665.238	0.0146493
665.316	0.0146100
665.394	0.0144076
665.472	0.0143990
665.550	0.0144978
665.628	0.0144293
665.706	0.0144817
665.785	0.0145289
665.863	0.0146048
665.941	0.0144198
666.019	0.0144392
666.097	0.0144401
666.175	0.0144009
666.253	0.0144054
666.331	0.0145104
666.410	0.0144302
666.488	0.0143499
666.566	0.0144814
666.644	0.0145202
666.722	0.0144328
666.800	0.0144530
666.878	0.0144624
666.956	0.0145303
667.035	0.0145527
667.113	0.0145354
667.191	0.0142770
667.269	0.0144661
667.347	0.0144732
667.425	0.0145681
667.503	0.0145546
667.581	0.0144664
667.660	0.0145153
667.738	0.0145227
667.816	0.0143448
667.894	0.0145583
667.972	0.0144967
668.050	0.0144767
668.128	0.0143971
668.206	0.0146287
668.285	0.0144713
668.363	0.0144131
668.441	0.0145766
668.519	0.0145338
668.597	0.0144096
668.675	0.0143325
668.753	0.0144391
668.831	0.0145145
668.910	0.0144578
668.988	0.0144464
669.066	0.0144357
669.144	0.0145265
669.222	0.0145955
669.300	0.0144991
669.378	0.0144998
669.456	0.0143578
669.535	0.0145969
669.613	0.0145715
669.691	0.0143231
669.769	0.0143466
669.847	0.0143874
669.925	0.0145387
670.003	0.0144771
670.081	0.0143497
670.160	0.0144225
670.238	0.0145760
670.316	0.0144841
670.394	0.0145301
670.472	0.0144484
670.550	0.0144810
670.628	0.0146068
670.706	0.0145591
670.785	0.0144766
670.863	0.0145413
670.941	0.0144290
671.019	0.0144953
671.097	0.0145627
671.175	0.0145805
671.253	0.0144360
671.331	0.0144880
671.410	0.0145283
671.488	0.0143557
671.566	0.0143597
671.644	0.0144750
671.722	0.0144999
671.800	0.0145123
671.878	0.0145213
671.956	0.0144737
672.035	0.0144440
672.113	0.0143713
672.191	0.0143947
672.269	0.0145923
672.347	0.0144118
672.425	0.0145022
672.503	0.0143819
672.581	0.0144476
672.660	0.0143281
672.738	0.0144163
672.816	0.0145648
672.894	0.0145673
672.972	0.0145114
673.050	0.0144717
673.128	0.0145100
673.206	0.0144817
673.285	0.0144428
673.363	0.0145842
673.441	0.0145203
673.519	0.0144685
673.597	0.0145174
673.675	0.0145702
673.753	0.0145753
673.831	0.0145239
673.910	0.0146096
673.988	0.0145332
674.066	0.0145570
674.144	0.0145061
674.222	0.0144972
674.300	0.0143555
674.378	0.0144421
674.456	0.0145619
674.535	0.0145316
674.613	0.0145216
674.691	0.0143754
674.769	0.0144050
674.847	0.0145128
674.925	0.0144980
675.003	0.0144811
675.081	0.0144936
675.160	0.0144197
675.238	0.0143451
675.316	0.0144621
675.394	0.0145480
675.472	0.0145972
675.550	0.0143697
675.628	0.0143903
675.706	0.0144894
675.785	0.0143710
675.863	0.0144404
675.941	0.0143334
676.019	0.0143569
676.097	0.0144172
676.175	0.0145242
676.253	0.0145404
676.331	0.0144735
676.410	0.0144299
676.488	0.0143064
676.566	0.0145020
676.644	0.0144408
676.722	0.0144135
676.800	0.0144000
676.878	0.0143540
676.956	0.0145089
677.035	0.0145647
677.113	0.0144086
677.191	0.0145195
677.269	0.0143971
677.347	0.0145566
677.425	0.0145580
677.503	0.0145815
677.581	0.0144863
677.660	0.0144282
677.738	0.0145241
677.816	0.0145744
677.894	0.0146194
677.972	0.0145885
678.050	0.0144831
678.128	0.0145265
678.206	0.0144611
678.285	0.0145673
678.363	0.0145693
678.441	0.0144463
678.519	0.0145842
678.597	0.0146688
678.675	0.0146701
678.753	0.0145760
678.831	0.0144158
678.910	0.0146049
678.988	0.0146029
679.066	0.0146352
679.144	0.0145357
679.222	0.0146601
679.300	0.0145042
679.378	0.0146132
679.456	0.0145304
679.535	0.0145514
679.613	0.0145450
679.691	0.0146384
679.769	0.0146397
679.847	0.0144907
679.925	0.0146081
680.003	0.0145522
680.081	0.0145793
680.160	0.0145927
680.238	0.0145680
680.316	0.0147176
680.394	0.0146381
680.472	0.0146682
680.550	0.0145731
680.628	0.0145837
680.706	0.0146021
680.785	0.0145936
680.863	0.0145373
680.941	0.0145445
681.019	0.0145838
681.097	0.0144868
681.175	0.0146404
681.253	0.0144736
681.331	0.0142882
681.410	0.0145190
681.488	0.0145886
681.566	0.0145217
681.644	0.0146824
681.722	0.0146204
681.800	0.0144966
681.878	0.0145814
681.956	0.0144891
682.035	0.0144786
682.113	0.0145073
682.191	0.0145903
682.269	0.0147435
682.347	0.0146236
682.425	0.0146622
682.503	0.0147589
682.581	0.0146104
682.660	0.0145941
682.738	0.0146683
682.816	0.0145220
682.894	0.0145566
682.972	0.0145409
683.050	0.0146040
683.128	0.0144997
683.206	0.0144926
683.285	0.0145233
683.363	0.0146590
683.441	0.0144357
683.519	0.0144396
683.597	0.0145023
683.675	0.0145725
683.753	0.0145201
683.831	0.0145050
683.910	0.0144034
683.988	0.0144792
684.066	0.0145906
684.144	0.0142852
684.222	0.0144662
684.300	0.0145293
684.378	0.0145408
684.456	0.0144284
684.535	0.0146706
684.613	0.0145904
684.691	0.0146523
684.769	0.0145471
684.847	0.0147158
684.925	0.0145713
685.003	0.0144971
685.081	0.0145110
685.160	0.0146111
685.238	0.0146449
685.316	0.0146117
685.394	0.0145235
685.472	0.0145513
685.550	0.0146005
685.628	0.0146146
685.706	0.0144777
685.785	0.0145408
685.863	0.0144426
685.941	0.0145275
686.019	0.0144361
686.097	0.0144919
686.175	0.0144936
686.253	0.0144148
686.331	0.0143217
686.410	0.0142791
686.488	0.0144267
686.566	0.0145422
686.644	0.0145149
686.722	0.0144678
686.800	0.0144115
686.878	0.0146456
686.956	0.0144737
687.035	0.0144581
687.113	0.0144772
687.191	0.0145901
687.269	0.0145467
687.347	0.0144802
687.425	0.0145667
687.503	0.0144907
687.581	0.0144526
687.660	0.0146336
687.738	0.0144902
687.816	0.0145873
687.894	0.0145443
687.972	0.0143726
688.050	0.0143688
688.128	0.0143243
688.206	0.0144090
688.285	0.0143711
688.363	0.0144221
688.441	0.0144749
688.519	0.0145467
688.597	0.0145821
688.675	0.0144294
688.753	0.0145182
688.831	0.0144508
688.910	0.0146712
688.988	0.0144713
689.066	0.0145221
689.144	0.0144250
689.222	0.0143960
689.300	0.0144400
689.378	0.0144834
689.456	0.0145219
689.535	0.0144272
689.613	0.0144230
689.691	0.0145280
689.769	0.0145605
689.847	0.0146499
689.925	0.0146632
690.003	0.0147031
690.081	0.0147202
690.160	0.0144931
690.238	0.0147334
690.316	0.0146678
690.394	0.0145026
690.472	0.0145650
690.550	0.0145737
690.628	0.0144511
690.706	0.0145484
690.785	0.0145280
690.863	0.0144039
690.941	0.0144315
691.019	0.0146825
691.097	0.0145677
691.175	0.0144823
691.253	0.0144201
691.331	0.0143340
691.410	0.0143886
691.488	0.0144717
691.566	0.0143416
691.644	0.0144613
691.722	0.0144895
691.800	0.0144299
691.878	0.0143744
691.956	0.0142986
692.035	0.0142930
692.113	0.0143468
692.191	0.0145068
692.269	0.0143577
692.347	0.0145251
692.425	0.0145191
692.503	0.0145121
692.581	0.0143736
692.660	0.0145210
692.738	0.0143352
692.816	0.0143008
692.894	0.0142862
692.972	0.0143155
693.050	0.0144109
693.128	0.0144111
693.206	0.0143760
693.285	0.0143283
693.363	0.0144314
693.441	0.0143862
693.519	0.0143681
693.597	0.0143983
693.675	0.0144850
693.753	0.0144946
693.831	0.0145032
693.910	0.0145094
693.988	0.0144649
694.066	0.0144424
694.144	0.0142653
694.222	0.0144299
694.300	0.0145583
694.378	0.0145023
694.456	0.0144401
694.535	0.0143027
694.613	0.0144514
694.691	0.0145510
694.769	0.0144193
694.847	0.0143829
694.925	0.0143342
695.003	0.0141830
695.081	0.0144547
695.160	0.0143774
695.238	0.0144373
695.316	0.0143102
695.394	0.0144899
695.472	0.0144077
695.550	0.0142671
695.628	0.0143377
695.706	0.0143880
695.785	0.0145013
695.863	0.0144191
695.941	0.0144878
696.019	0.0145103
696.097	0.0144801
696.175	0.0145499
696.253	0.0145149
696.331	0.0143991
696.410	0.0144181
696.488	0.0144714
696.566	0.0144780
696.644	0.0143266
696.722	0.0144582
696.800	0.0143466
696.878	0.0142515
696.956	0.0143641
697.035	0.0142943
697.113	0.0142758
697.191	0.0144489
697.269	0.0143209
697.347	0.0143598
697.425	0.0143046
697.503	0.0144120
697.581	0.0144008
697.660	0.0143224
697.738	0.0144808
697.816	0.0144692
697.894	0.0145058
697.972	0.0145809
698.050	0.0144720
698.128	0.0144520
698.206	0.0145067
698.285	0.0145274
698.363	0.0144587
698.441	0.0143579
698.519	0.0143323
698.597	0.0144048
698.675	0.0144341
698.753	0.0144662
698.831	0.0144197
698.910	0.0143030
698.988	0.0145027
699.066	0.0143764
699.144	0.0143761
699.222	0.0144820
699.300	0.0144434
699.378	0.0145123
699.456	0.0143268
699.535	0.0145545
699.613	0.0144547
699.691	0.0144315
699.769	0.0145993
699.847	0.0144815
699.925	0.0145378
700.003	0.0144638
700.081	0.0145430
700.160	0.0145706
700.238	0.0144796
700.316	0.0144570
700.394	0.0145756
700.472	0.0145009
700.550	0.0142890
700.628	0.0144081
700.706	0.0144671
700.785	0.0145145
700.863	0.0145361
700.941	0.0144849
701.019	0.0144289
701.097	0.0146076
701.175	0.0145862
701.253	0.0146650
701.331	0.0147415
701.410	0.0146102
701.488	0.0146012
701.566	0.0145919
701.644	0.0145483
701.722	0.0146342
701.800	0.0145853
701.878	0.0145842
701.956	0.0146721
702.035	0.0146415
702.113	0.0147506
702.191	0.0147227
702.269	0.0145863
702.347	0.0146049
702.425	0.0146759
702.503	0.0146642
702.581	0.0146964
702.660	0.0146200
702.738	0.0146417
702.816	0.0145531
702.894	0.0147258
702.972	0.0144822
703.050	0.0145089
703.128	0.0146644
703.206	0.0145380
703.285	0.0145614
703.363	0.0145193
703.441	0.0145446
703.519	0.0145048
703.597	0.0146056
703.675	0.0145638
703.753	0.0145880
703.831	0.0146023
703.910	0.0146128
703.988	0.0147441
704.066	0.0146499
704.144	0.0145698
704.222	0.0147353
704.300	0.0146538
704.378	0.0146777
704.456	0.0146812
704.535	0.0145171
704.613	0.0146923
704.691	0.0147260
704.769	0.0145621
704.847	0.0146742
704.925	0.0146259
705.003	0.0144727
705.081	0.0145240
705.160	0.0144976
705.238	0.0144609
705.316	0.0145874
705.394	0.0145787
705.472	0.0145335
705.550	0.0146593
705.628	0.0145777
705.706	0.0145587
705.785	0.0145615
705.863	0.0146174
705.941	0.0144989
706.019	0.0145845
706.097	0.0145855
706.175	0.0145433
706.253	0.0146689
706.331	0.0146820
706.410	0.0145599
706.488	0.0145046
706.566	0.0145240
706.644	0.0146329
706.722	0.0146205
706.800	0.0145317
706.878	0.0146191
706.956	0.0145921
707.035	0.0143803
707.113	0.0145913
707.191	0.0146413
707.269	0.0146389
707.347	0.0146271
707.425	0.0147021
707.503	0.0146600
707.581	0.0145235
707.660	0.0145695
707.738	0.0147009
707.816	0.0146780
707.894	0.0145583
707.972	0.0145929
708.050	0.0146986
708.128	0.0147618
708.206	0.0146024
708.285	0.0146346
708.363	0.0145949
708.441	0.0146883
708.519	0.0147478
708.597	0.0147112
708.675	0.0146698
708.753	0.0147265
708.831	0.0145719
708.910	0.0146216
708.988	0.0146394
709.066	0.0145973
709.144	0.0146577
709.222	0.0147338
709.300	0.0146193
709.378	0.0145718
709.456	0.0146572
709.535	0.0146392
709.613	0.0146388
709.691	0.0145385
709.769	0.0145305
709.847	0.0146207
709.925	0.0146056
710.003	0.0145716
710.081	0.0145822
710.160	0.0145490
710.238	0.0145461
710.316	0.0145499
710.394	0.0145406
710.472	0.0144361
710.550	0.0144341
710.628	0.0145537
710.706	0.0144936
710.785	0.0145705
710.863	0.0145465
710.941	0.0146487
711.019	0.0144569
711.097	0.0146262
711.175	0.0145044
711.253	0.0144817
711.331	0.0144785
711.410	0.0145317
711.488	0.0145498
711.566	0.0145122
711.644	0.0145512
711.722	0.0145049
711.800	0.0143718
711.878	0.0144968
711.956	0.0144392
712.035	0.0145061
712.113	0.0144833
712.191	0.0145022
712.269	0.0145056
712.347	0.0145707
712.425	0.0145388
712.503	0.0145478
712.581	0.0144819
712.660	0.0143697
712.738	0.0145378
712.816	0.0145484
712.894	0.0145711
712.972	0.0146246
713.050	0.0144472
713.128	0.0145768
713.206	0.0145174
713.285	0.0143833
713.363	0.0145931
713.441	0.0143995
713.519	0.0143590
713.597	0.0144457
713.675	0.0144708
713.753	0.0144396
713.831	0.0144573
713.910	0.0145440
713.988	0.0143594
714.066	0.0143828
714.144	0.0144172
714.222	0.0145165
714.300	0.0144142
714.378	0.0145415
714.456	0.0145792
714.535	0.0145889
714.613	0.0144196
714.691	0.0144374
714.769	0.0144411
714.847	0.0144659
714.925	0.0145882
715.003	0.0147011
715.081	0.0144810
715.160	0.0146925
715.238	0.0145985
715.316	0.0145171
715.394	0.0145399
715.472	0.0145422
715.550	0.0146070
715.628	0.0146124
715.706	0.0147121
715.785	0.0145979
715.863	0.0145604
715.941	0.0145039
716.019	0.0145515
716.097	0.0143835
716.175	0.0145226
716.253	0.0145660
716.331	0.0144293
716.410	0.0145975
716.488	0.0145795
716.566	0.0144357
716.644	0.0145609
716.722	0.0145449
716.800	0.0146227
716.878	0.0144308
716.956	0.0146258
717.035	0.0146014
717.113	0.0145166
717.191	0.0145235
717.269	0.0142986
717.347	0.0143614
717.425	0.0145815
717.503	0.0146195
717.581	0.0145040
717.660	0.0144957
717.738	0.0146613
717.816	0.0144451
717.894	0.0143745
717.972	0.0145192
718.050	0.0145116
718.128	0.0144214
718.206	0.0145076
718.285	0.0144155
718.363	0.0145361
718.441	0.0143929
718.519	0.0144427
718.597	0.0145319
718.675	0.0144286
718.753	0.0144202
718.831	0.0144773
718.910	0.0143066
718.988	0.0143541
719.066	0.0143826
719.144	0.0145260
719.222	0.0143324
719.300	0.0144028
719.378	0.0144332
719.456	0.0143870
719.535	0.0143257
719.613	0.0144331
719.691	0.0143829
719.769	0.0143575
719.847	0.0144229
719.925	0.0145134
720.003	0.0145287
720.081	0.0145407
720.160	0.0144082
720.238	0.0144911
720.316	0.0144798
720.394	0.0144069
720.472	0.0145982
720.550	0.0145734
720.628	0.0143857
720.706	0.0145625
720.785	0.0145416
720.863	0.0145132
720.941	0.0143758
721.019	0.0144176
721.097	0.0145444
721.175	0.0144641
721.253	0.0144964
721.331	0.0146748
721.410	0.0145398
721.488	0.0146099
721.566	0.0144154
721.644	0.0145200
721.722	0.0144640
721.800	0.0145654
721.878	0.0144812
721.956	0.0146943
722.035	0.0145192
722.113	0.0145742
722.191	0.0146385
722.269	0.0145534
722.347	0.0146453
722.425	0.0146562
722.503	0.0145063
722.581	0.0146326
722.660	0.0145602
722.738	0.0146096
722.816	0.0143713
722.894	0.0144875
722.972	0.0145536
723.050	0.0145905
723.128	0.0145271
723.206	0.0144402
723.285	0.0145592
723.363	0.0145055
723.441	0.0143819
723.519	0.0145126
723.597	0.0143699
723.675	0.0143991
723.753	0.0145213
723.831	0.0143636
723.910	0.0145718
723.988	0.0144041
724.066	0.0145448
724.144	0.0143578
724.222	0.0143961
724.300	0.0145687
724.378	0.0145647
724.456	0.0143868
724.535	0.0143495
724.613	0.0144694
724.691	0.0145105
724.769	0.0144208
724.847	0.0144881
724.925	0.0145174
725.003	0.0144362
725.081	0.0144904
725.160	0.0144798
725.238	0.0146597
725.316	0.0145736
725.394	0.0145015
725.472	0.0144099
725.550	0.0146127
725.628	0.0144889
725.706	0.0145869
725.785	0.0144389
725.863	0.0143960
725.941	0.0144952
726.019	0.0145104
726.097	0.0145078
726.175	0.0144884
726.253	0.0145401
726.331	0.0145084
726.410	0.0145640
726.488	0.0145489
726.566	0.0144512
726.644	0.0144061
726.722	0.0144572
726.800	0.0144382
726.878	0.0144205
726.956	0.0144577
727.035	0.0145214
727.113	0.0144920
727.191	0.0145515
727.269	0.0144198
727.347	0.0145405
727.425	0.0144730
727.503	0.0144174
727.581	0.0144991
727.660	0.0145345
727.738	0.0145602
727.816	0.0145450
727.894	0.0145237
727.972	0.0143920
728.050	0.0145573
728.128	0.0144681
728.206	0.0145008
728.285	0.0145832
728.363	0.0146436
728.441	0.0146590
728.519	0.0144820
728.597	0.0146230
728.675	0.0145561
728.753	0.0146092
728.831	0.0145728
728.910	0.0145878
728.988	0.0147459
729.066	0.0146147
729.144	0.0147100
729.222	0.0145576
729.300	0.0147612
729.378	0.0146794
729.456	0.0145490
729.535	0.0146491
729.613	0.0146441
729.691	0.0145837
729.769	0.0146381
729.847	0.0145640
729.925	0.0146052
730.003	0.0146907
730.081	0.0147056
730.160	0.0145322
730.238	0.0146500
730.316	0.0146700
730.394	0.0145742
730.472	0.0145333
730.550	0.0147054
730.628	0.0146001
730.706	0.0145136
730.785	0.0145155
730.863	0.0145178
730.941	0.0143665
731.019	0.0145357
731.097	0.0146192
731.175	0.0146846
731.253	0.0145452
731.331	0.0145919
731.410	0.0145795
731.488	0.0146109
731.566	0.0146040
731.644	0.0145342
731.722	0.0144980
731.800	0.0144515
731.878	0.0145452
731.956	0.0146590
732.035	0.0143715
732.113	0.0145252
732.191	0.0146233
732.269	0.0145303
732.347	0.0144456
732.425	0.0145461
732.503	0.0144757
732.581	0.0145237
732.660	0.0144704
732.738	0.0145227
732.816	0.0145409
732.894	0.0146016
732.972	0.0145369
733.050	0.0146547
733.128	0.0145860
733.206	0.0145153
733.285	0.0146836
733.363	0.0145327
733.441	0.0144392
733.519	0.0144923
733.597	0.0145302
733.675	0.0145756
733.753	0.0144896
733.831	0.0145555
733.910	0.0145544
733.988	0.0145869
734.066	0.0146018
734.144	0.0146791
734.222	0.0146023
734.300	0.0146871
734.378	0.0144763
734.456	0.0145525
734.535	0.0145576
734.613	0.0146089
734.691	0.0145865
734.769	0.0145272
734.847	0.0144946
734.925	0.0144821
735.003	0.0143877
735.081	0.0144965
735.160	0.0146053
735.238	0.0147115
735.316	0.0145242
735.394	0.0145601
735.472	0.0146009
735.550	0.0146148
735.628	0.0145845
735.706	0.0145916
735.785	0.0146447
735.863	0.0147065
735.941	0.0145795
736.019	0.0145763
736.097	0.0146516
736.175	0.0145765
736.253	0.0145553
736.331	0.0146561
736.410	0.0146115
736.488	0.0147222
736.566	0.0145881
736.644	0.0146059
736.722	0.0147073
736.800	0.0145116
736.878	0.0144579
736.956	0.0147282
737.035	0.0145499
737.113	0.0146341
737.191	0.0145955
737.269	0.0143684
737.347	0.0146023
737.425	0.0146209
737.503	0.0144547
737.581	0.0144787
737.660	0.0144300
737.738	0.0144051
737.816	0.0144798
737.894	0.0146283
737.972	0.0145847
738.050	0.0145284
738.128	0.0144868
738.206	0.0146268
738.285	0.0145372
738.363	0.0144437
738.441	0.0144879
738.519	0.0146819
738.597	0.0145195
738.675	0.0145146
738.753	0.0145616
738.831	0.0146411
738.910	0.0144340
738.988	0.0145502
739.066	0.0145641
739.144	0.0145444
739.222	0.0145866
739.300	0.0145593
739.378	0.0143833
739.456	0.0145119
739.535	0.0145263
739.613	0.0144691
739.691	0.0145601
739.769	0.0144827
739.847	0.0145090
739.925	0.0144671
740.003	0.0145679
740.081	0.0147111
740.160	0.0144424
740.238	0.0144579
740.316	0.0144795
740.394	0.0146749
740.472	0.0146615
740.550	0.0147026
740.628	0.0145183
740.706	0.0144068
740.785	0.0145486
740.863	0.0145936
740.941	0.0145303
741.019	0.0145718
741.097	0.0146107
741.175	0.0145811
741.253	0.0144770
741.331	0.0146603
741.410	0.0144186
741.488	0.0145822
741.566	0.0146534
741.644	0.0145545
741.722	0.0144382
741.800	0.0145368
741.878	0.0144987
741.956	0.0145023
742.035	0.0145094
742.113	0.0143678
742.191	0.0143813
742.269	0.0145407
742.347	0.0146925
742.425	0.0146262
742.503	0.0143851
742.581	0.0144900
742.660	0.0146071
742.738	0.0145840
742.816	0.0145022
742.894	0.0144930
742.972	0.0144835
743.050	0.0146027
743.128	0.0145089
743.206	0.0145900
743.285	0.0145812
743.363	0.0146261
743.441	0.0145122
743.519	0.0146135
743.597	0.0147257
743.675	0.0146388
743.753	0.0146761
743.831	0.0146263
743.910	0.0145987
743.988	0.0145747
744.066	0.0145280
744.144	0.0147707
744.222	0.0145718
744.300	0.0144399
744.378	0.0145840
744.456	0.0144093
744.535	0.0145168
744.613	0.0144768
744.691	0.0145455
744.769	0.0145524
744.847	0.0144346
744.925	0.0143523
745.003	0.0145696
745.081	0.0144460
745.160	0.0145404
745.238	0.0144306
745.316	0.0145022
745.394	0.0144926
745.472	0.0144382
745.550	0.0144347
745.628	0.0145622
745.706	0.0145238
