05/03/2022	20:48:03	Ver.	4.1	UNKNOWN
Optical Delay	660.003261	Delta X		0.078125	Sweeps	1	Scan Rate	0/0
Coordinates	Axis 1	NaN	Axis 2	NaN	Axis 3	NaN	Axis 4	NaN	Axis 5	NaN	Axis 6	0.000000
TX Power	0.000000	RX Power	0.000000

660.003	0.0148934
660.081	0.0147984
660.160	0.0148326
660.238	0.0149744
660.316	0.0148421
660.394	0.0148396
660.472	0.0148340
660.550	0.0149414
660.628	0.0147900
660.706	0.0148685
660.785	0.0148003
660.863	0.0149204
660.941	0.0148549
661.019	0.0147973
661.097	0.0148590
661.175	0.0147806
661.253	0.0149018
661.331	0.0147689
661.410	0.0148261
661.488	0.0147900
661.566	0.0146442
661.644	0.0147726
661.722	0.0149143
661.800	0.0147541
661.878	0.0148717
661.956	0.0147697
662.035	0.0147988
662.113	0.0149040
662.191	0.0147747
662.269	0.0147076
662.347	0.0147977
662.425	0.0148408
662.503	0.0147620
662.581	0.0147808
662.660	0.0149332
662.738	0.0147422
662.816	0.0148901
662.894	0.0149064
662.972	0.0148336
663.050	0.0148363
663.128	0.0147502
663.206	0.0148306
663.285	0.0149267
663.363	0.0148343
663.441	0.0147691
663.519	0.0149118
663.597	0.0147355
663.675	0.0148349
663.753	0.0148242
663.831	0.0147923
663.910	0.0148946
663.988	0.0149493
664.066	0.0147810
664.144	0.0148311
664.222	0.0148747
664.300	0.0148618
664.378	0.0147569
664.456	0.0148453
664.535	0.0148660
664.613	0.0148936
664.691	0.0148371
664.769	0.0148264
664.847	0.0148206
664.925	0.0148927
665.003	0.0149234
665.081	0.0148637
665.160	0.0147388
665.238	0.0147655
665.316	0.0149211
665.394	0.0148595
665.472	0.0147042
665.550	0.0147590
665.628	0.0148583
665.706	0.0149388
665.785	0.0148959
665.863	0.0149525
665.941	0.0148325
666.019	0.0147144
666.097	0.0149437
666.175	0.0150089
666.253	0.0149441
666.331	0.0150018
666.410	0.0148091
666.488	0.0149592
666.566	0.0149061
666.644	0.0147977
666.722	0.0148363
666.800	0.0148975
666.878	0.0149097
666.956	0.0148770
667.035	0.0147250
667.113	0.0147535
667.191	0.0150040
667.269	0.0148164
667.347	0.0147758
667.425	0.0147755
667.503	0.0148524
667.581	0.0149014
667.660	0.0147886
667.738	0.0147433
667.816	0.0148808
667.894	0.0148706
667.972	0.0148322
668.050	0.0148100
668.128	0.0149397
668.206	0.0148975
668.285	0.0147732
668.363	0.0147637
668.441	0.0148077
668.519	0.0148638
668.597	0.0148073
668.675	0.0148018
668.753	0.0148046
668.831	0.0148014
668.910	0.0147915
668.988	0.0147310
669.066	0.0148992
669.144	0.0148794
669.222	0.0148482
669.300	0.0148009
669.378	0.0149221
669.456	0.0148437
669.535	0.0148052
669.613	0.0148138
669.691	0.0148488
669.769	0.0147867
669.847	0.0148668
669.925	0.0148963
670.003	0.0147887
670.081	0.0148639
670.160	0.0148074
670.238	0.0148867
670.316	0.0148463
670.394	0.0147283
670.472	0.0147803
670.550	0.0147710
670.628	0.0147443
670.706	0.0147649
670.785	0.0148095
670.863	0.0148314
670.941	0.0148297
671.019	0.0149599
671.097	0.0146033
671.175	0.0146632
671.253	0.0147335
671.331	0.0147988
671.410	0.0148781
671.488	0.0148688
671.566	0.0147341
671.644	0.0147888
671.722	0.0147993
671.800	0.0149239
671.878	0.0149197
671.956	0.0148746
672.035	0.0147755
672.113	0.0148866
672.191	0.0147957
672.269	0.0148833
672.347	0.0149528
672.425	0.0147977
672.503	0.0147808
672.581	0.0149848
672.660	0.0148525
672.738	0.0149286
672.816	0.0149375
672.894	0.0148459
672.972	0.0147541
673.050	0.0147681
673.128	0.0148956
673.206	0.0149839
673.285	0.0147710
673.363	0.0149519
673.441	0.0149055
673.519	0.0148934
673.597	0.0147750
673.675	0.0148431
673.753	0.0148631
673.831	0.0147227
673.910	0.0146620
673.988	0.0146900
674.066	0.0147042
674.144	0.0146767
674.222	0.0148000
674.300	0.0147531
674.378	0.0148306
674.456	0.0147062
674.535	0.0147862
674.613	0.0148698
674.691	0.0147926
674.769	0.0146545
674.847	0.0147571
674.925	0.0147004
675.003	0.0148231
675.081	0.0148228
675.160	0.0148605
675.238	0.0146742
675.316	0.0146706
675.394	0.0147617
675.472	0.0147214
675.550	0.0147453
675.628	0.0147285
675.706	0.0147392
675.785	0.0147953
675.863	0.0148962
675.941	0.0147222
676.019	0.0147544
676.097	0.0149350
676.175	0.0150320
676.253	0.0147826
676.331	0.0147403
676.410	0.0148312
676.488	0.0149187
676.566	0.0148833
676.644	0.0148598
676.722	0.0148840
676.800	0.0148854
676.878	0.0148737
676.956	0.0149341
677.035	0.0149814
677.113	0.0149026
677.191	0.0151154
677.269	0.0149644
677.347	0.0149133
677.425	0.0149628
677.503	0.0150959
677.581	0.0150122
677.660	0.0150341
677.738	0.0149846
677.816	0.0150014
677.894	0.0151357
677.972	0.0150167
678.050	0.0149062
678.128	0.0149875
678.206	0.0148550
678.285	0.0150301
678.363	0.0150246
678.441	0.0150084
678.519	0.0149541
678.597	0.0148840
678.675	0.0149247
678.753	0.0149960
678.831	0.0149210
678.910	0.0148551
678.988	0.0148658
679.066	0.0149806
679.144	0.0148335
679.222	0.0148218
679.300	0.0149048
679.378	0.0149761
679.456	0.0148642
679.535	0.0149636
679.613	0.0147400
679.691	0.0148134
679.769	0.0148468
679.847	0.0148630
679.925	0.0148052
680.003	0.0148373
680.081	0.0148768
680.160	0.0148170
680.238	0.0147572
680.316	0.0147749
680.394	0.0148579
680.472	0.0147250
680.550	0.0147416
680.628	0.0148323
680.706	0.0147070
680.785	0.0148251
680.863	0.0149429
680.941	0.0148851
681.019	0.0147900
681.097	0.0148769
681.175	0.0149422
681.253	0.0149755
681.331	0.0148193
681.410	0.0149308
681.488	0.0148844
681.566	0.0149081
681.644	0.0149046
681.722	0.0148933
681.800	0.0148858
681.878	0.0148614
681.956	0.0148396
682.035	0.0149505
682.113	0.0148103
682.191	0.0147794
682.269	0.0148072
682.347	0.0148457
682.425	0.0149244
682.503	0.0147172
682.581	0.0147610
682.660	0.0149123
682.738	0.0148354
682.816	0.0148036
682.894	0.0149674
682.972	0.0148622
683.050	0.0149030
683.128	0.0147809
683.206	0.0147942
683.285	0.0149069
683.363	0.0148042
683.441	0.0147586
683.519	0.0147393
683.597	0.0148875
683.675	0.0148957
683.753	0.0148891
683.831	0.0148582
683.910	0.0148178
683.988	0.0149759
684.066	0.0148521
684.144	0.0147405
684.222	0.0148215
684.300	0.0147975
684.378	0.0149084
684.456	0.0147623
684.535	0.0148598
684.613	0.0148022
684.691	0.0148496
684.769	0.0147733
684.847	0.0147060
684.925	0.0147208
685.003	0.0148246
685.081	0.0147400
685.160	0.0147788
685.238	0.0147996
685.316	0.0146435
685.394	0.0147899
685.472	0.0148118
685.550	0.0146422
685.628	0.0147654
685.706	0.0147461
685.785	0.0146774
685.863	0.0147984
685.941	0.0146659
686.019	0.0149111
686.097	0.0148975
686.175	0.0148160
686.253	0.0149249
686.331	0.0148590
686.410	0.0147687
686.488	0.0146749
686.566	0.0148080
686.644	0.0148316
686.722	0.0148614
686.800	0.0148868
686.878	0.0148798
686.956	0.0149656
687.035	0.0148724
687.113	0.0148223
687.191	0.0148209
687.269	0.0148283
687.347	0.0148078
687.425	0.0147036
687.503	0.0147612
687.581	0.0148294
687.660	0.0147033
687.738	0.0147504
687.816	0.0147900
687.894	0.0147911
687.972	0.0146923
688.050	0.0149960
688.128	0.0149227
688.206	0.0148429
688.285	0.0147202
688.363	0.0148190
688.441	0.0148493
688.519	0.0148013
688.597	0.0148792
688.675	0.0147449
688.753	0.0148032
688.831	0.0147356
688.910	0.0146845
688.988	0.0149323
689.066	0.0148302
689.144	0.0148959
689.222	0.0147839
689.300	0.0149249
689.378	0.0149383
689.456	0.0148885
689.535	0.0148569
689.613	0.0147966
689.691	0.0147182
689.769	0.0147863
689.847	0.0148930
689.925	0.0148187
690.003	0.0147735
690.081	0.0148112
690.160	0.0147546
690.238	0.0147184
690.316	0.0147611
690.394	0.0147945
690.472	0.0146408
690.550	0.0147855
690.628	0.0147785
690.706	0.0148624
690.785	0.0147778
690.863	0.0146890
690.941	0.0147532
691.019	0.0145787
691.097	0.0147767
691.175	0.0147304
691.253	0.0146571
691.331	0.0145967
691.410	0.0147389
691.488	0.0147257
691.566	0.0146503
691.644	0.0147157
691.722	0.0147485
691.800	0.0147289
691.878	0.0148030
691.956	0.0147301
692.035	0.0146407
692.113	0.0145977
692.191	0.0146636
692.269	0.0147176
692.347	0.0146359
692.425	0.0147570
692.503	0.0146880
692.581	0.0146707
692.660	0.0146268
692.738	0.0146607
692.816	0.0148032
692.894	0.0148432
692.972	0.0147248
693.050	0.0148141
693.128	0.0147830
693.206	0.0146830
693.285	0.0148131
693.363	0.0148165
693.441	0.0147060
693.519	0.0147173
693.597	0.0148064
693.675	0.0145896
693.753	0.0146034
693.831	0.0148480
693.910	0.0148039
693.988	0.0147340
694.066	0.0147878
694.144	0.0147601
694.222	0.0147737
694.300	0.0147277
694.378	0.0146589
694.456	0.0148344
694.535	0.0147018
694.613	0.0148949
694.691	0.0147472
694.769	0.0148180
694.847	0.0148351
694.925	0.0148109
695.003	0.0148499
695.081	0.0148745
695.160	0.0149706
695.238	0.0149184
695.316	0.0150037
695.394	0.0149499
695.472	0.0149144
695.550	0.0149327
695.628	0.0149685
695.706	0.0148316
695.785	0.0149629
695.863	0.0148949
695.941	0.0148637
696.019	0.0146626
696.097	0.0148422
696.175	0.0147619
696.253	0.0148229
696.331	0.0146719
696.410	0.0148357
696.488	0.0148814
696.566	0.0149405
696.644	0.0149165
696.722	0.0149061
696.800	0.0148377
696.878	0.0149174
696.956	0.0148831
697.035	0.0148519
697.113	0.0148483
697.191	0.0148297
697.269	0.0147726
697.347	0.0147558
697.425	0.0147797
697.503	0.0148895
697.581	0.0147986
697.660	0.0148502
697.738	0.0148536
697.816	0.0148066
697.894	0.0148282
697.972	0.0148668
698.050	0.0147937
698.128	0.0147665
698.206	0.0147939
698.285	0.0147135
698.363	0.0148555
698.441	0.0147170
698.519	0.0146747
698.597	0.0148381
698.675	0.0147707
698.753	0.0148411
698.831	0.0147235
698.910	0.0148110
698.988	0.0148960
699.066	0.0147668
699.144	0.0148529
699.222	0.0148553
699.300	0.0150003
699.378	0.0148384
699.456	0.0149918
699.535	0.0149015
699.613	0.0149075
699.691	0.0149212
699.769	0.0150371
699.847	0.0148688
699.925	0.0148519
700.003	0.0148943
700.081	0.0149773
700.160	0.0148885
700.238	0.0149475
700.316	0.0149274
700.394	0.0150365
700.472	0.0149463
700.550	0.0150421
700.628	0.0149342
700.706	0.0149467
700.785	0.0150922
700.863	0.0150577
700.941	0.0149738
701.019	0.0150571
701.097	0.0149314
701.175	0.0149482
701.253	0.0149759
701.331	0.0150317
701.410	0.0149846
701.488	0.0150067
701.566	0.0151497
701.644	0.0149868
701.722	0.0150639
701.800	0.0149239
701.878	0.0149395
701.956	0.0150247
702.035	0.0150350
702.113	0.0149564
702.191	0.0149088
702.269	0.0147681
702.347	0.0149191
702.425	0.0149123
702.503	0.0148102
702.581	0.0149179
702.660	0.0148987
702.738	0.0149929
702.816	0.0148351
702.894	0.0148759
702.972	0.0150511
703.050	0.0147672
703.128	0.0148472
703.206	0.0149632
703.285	0.0150309
703.363	0.0149784
703.441	0.0148636
703.519	0.0151900
703.597	0.0149254
703.675	0.0148874
703.753	0.0148705
703.831	0.0147720
703.910	0.0148186
703.988	0.0148597
704.066	0.0148375
704.144	0.0149068
704.222	0.0147653
704.300	0.0149222
704.378	0.0148821
704.456	0.0149450
704.535	0.0149062
704.613	0.0147176
704.691	0.0149155
704.769	0.0147773
704.847	0.0147912
704.925	0.0149461
705.003	0.0149556
705.081	0.0149014
705.160	0.0148721
705.238	0.0148994
705.316	0.0149277
705.394	0.0148646
705.472	0.0149565
705.550	0.0147444
705.628	0.0149123
705.706	0.0150328
705.785	0.0148402
705.863	0.0148904
705.941	0.0149409
706.019	0.0148882
706.097	0.0149026
706.175	0.0149057
706.253	0.0149589
706.331	0.0148092
706.410	0.0147517
706.488	0.0148045
706.566	0.0148494
706.644	0.0149265
706.722	0.0148365
706.800	0.0148632
706.878	0.0148367
706.956	0.0149071
707.035	0.0149581
707.113	0.0149146
707.191	0.0149488
707.269	0.0148822
707.347	0.0148440
707.425	0.0148798
707.503	0.0150437
707.581	0.0150141
707.660	0.0147922
707.738	0.0147417
707.816	0.0148042
707.894	0.0149232
707.972	0.0147088
708.050	0.0148364
708.128	0.0148396
708.206	0.0148079
708.285	0.0148314
708.363	0.0149805
708.441	0.0149583
708.519	0.0148363
708.597	0.0149815
708.675	0.0148629
708.753	0.0149623
708.831	0.0149348
708.910	0.0149555
708.988	0.0148154
709.066	0.0148078
709.144	0.0148145
709.222	0.0148630
709.300	0.0148003
709.378	0.0149421
709.456	0.0148338
709.535	0.0147314
709.613	0.0147902
709.691	0.0146865
709.769	0.0148195
709.847	0.0148355
709.925	0.0147285
710.003	0.0147160
710.081	0.0148080
710.160	0.0149472
710.238	0.0147178
710.316	0.0146829
710.394	0.0147565
710.472	0.0148415
710.550	0.0149265
710.628	0.0147317
710.706	0.0148843
710.785	0.0148273
710.863	0.0146702
710.941	0.0147578
711.019	0.0147506
711.097	0.0147158
711.175	0.0147994
711.253	0.0148054
711.331	0.0147736
711.410	0.0147501
711.488	0.0146878
711.566	0.0147750
711.644	0.0148151
711.722	0.0148228
711.800	0.0146870
711.878	0.0148643
711.956	0.0147784
712.035	0.0146323
712.113	0.0145565
712.191	0.0147545
712.269	0.0147831
712.347	0.0146906
712.425	0.0147051
712.503	0.0147028
712.581	0.0147176
712.660	0.0146754
712.738	0.0147063
712.816	0.0147920
712.894	0.0147662
712.972	0.0147099
713.050	0.0147233
713.128	0.0146953
713.206	0.0147328
713.285	0.0147337
713.363	0.0147974
713.441	0.0148090
713.519	0.0147884
713.597	0.0147705
713.675	0.0149233
713.753	0.0148119
713.831	0.0148430
713.910	0.0149409
713.988	0.0148820
714.066	0.0150410
714.144	0.0148653
714.222	0.0148959
714.300	0.0147602
714.378	0.0147108
714.456	0.0149734
714.535	0.0149120
714.613	0.0149010
714.691	0.0147761
714.769	0.0148428
714.847	0.0149022
714.925	0.0149536
715.003	0.0149245
715.081	0.0149300
715.160	0.0148650
715.238	0.0148727
715.316	0.0149070
715.394	0.0148644
715.472	0.0148660
715.550	0.0149706
715.628	0.0149601
715.706	0.0148569
715.785	0.0148466
715.863	0.0148120
715.941	0.0149012
716.019	0.0149458
716.097	0.0148959
716.175	0.0149094
716.253	0.0148194
716.331	0.0148521
716.410	0.0148362
716.488	0.0147849
716.566	0.0146790
716.644	0.0148299
716.722	0.0149535
716.800	0.0148721
716.878	0.0149832
716.956	0.0148444
717.035	0.0147346
717.113	0.0148012
717.191	0.0148240
717.269	0.0149158
717.347	0.0147768
717.425	0.0147160
717.503	0.0146617
717.581	0.0147916
717.660	0.0147989
717.738	0.0147058
717.816	0.0146904
717.894	0.0146043
717.972	0.0146983
718.050	0.0146777
718.128	0.0146944
718.206	0.0148379
718.285	0.0146860
718.363	0.0146828
718.441	0.0146793
718.519	0.0147896
718.597	0.0147670
718.675	0.0147591
718.753	0.0147772
718.831	0.0147254
718.910	0.0148315
718.988	0.0148586
719.066	0.0148724
719.144	0.0148071
719.222	0.0147270
719.300	0.0148540
719.378	0.0146925
719.456	0.0146881
719.535	0.0147026
719.613	0.0148500
719.691	0.0147350
719.769	0.0146630
719.847	0.0147340
719.925	0.0149527
720.003	0.0148614
720.081	0.0146656
720.160	0.0147535
720.238	0.0148610
720.316	0.0149304
720.394	0.0149304
720.472	0.0149051
720.550	0.0148820
720.628	0.0149134
720.706	0.0149679
720.785	0.0148647
720.863	0.0148572
720.941	0.0149498
721.019	0.0149792
721.097	0.0148746
721.175	0.0149576
721.253	0.0149705
721.331	0.0148524
721.410	0.0149876
721.488	0.0149662
721.566	0.0150401
721.644	0.0149085
721.722	0.0149138
721.800	0.0148443
721.878	0.0149850
721.956	0.0148296
722.035	0.0148702
722.113	0.0149448
722.191	0.0149835
722.269	0.0149678
722.347	0.0149697
722.425	0.0149388
722.503	0.0149482
722.581	0.0148364
722.660	0.0148711
722.738	0.0149574
722.816	0.0149184
722.894	0.0148328
722.972	0.0149262
723.050	0.0148650
723.128	0.0149448
723.206	0.0148801
723.285	0.0148946
723.363	0.0149093
723.441	0.0148712
723.519	0.0149960
723.597	0.0149370
723.675	0.0148380
723.753	0.0149257
723.831	0.0148609
723.910	0.0150055
723.988	0.0148379
724.066	0.0148311
724.144	0.0148977
724.222	0.0148991
724.300	0.0149061
724.378	0.0149455
724.456	0.0149541
724.535	0.0148040
724.613	0.0146942
724.691	0.0147313
724.769	0.0149382
724.847	0.0149000
724.925	0.0147517
725.003	0.0148061
725.081	0.0148476
725.160	0.0148132
725.238	0.0149685
725.316	0.0148402
725.394	0.0148489
725.472	0.0148323
725.550	0.0146956
725.628	0.0148019
725.706	0.0149354
725.785	0.0148716
725.863	0.0148790
725.941	0.0149649
726.019	0.0149899
726.097	0.0149200
726.175	0.0149105
726.253	0.0147915
726.331	0.0148245
726.410	0.0149153
726.488	0.0149711
726.566	0.0148981
726.644	0.0150031
726.722	0.0149102
726.800	0.0148622
726.878	0.0147733
726.956	0.0148309
727.035	0.0150494
727.113	0.0150108
727.191	0.0148808
727.269	0.0148828
727.347	0.0149608
727.425	0.0149562
727.503	0.0150420
727.581	0.0150618
727.660	0.0149395
727.738	0.0149316
727.816	0.0149184
727.894	0.0150931
727.972	0.0150998
728.050	0.0149358
728.128	0.0149212
728.206	0.0148634
728.285	0.0149972
728.363	0.0147225
728.441	0.0149714
728.519	0.0150181
728.597	0.0148920
728.675	0.0148557
728.753	0.0149215
728.831	0.0149806
728.910	0.0148055
728.988	0.0149680
729.066	0.0148602
729.144	0.0149470
729.222	0.0148476
729.300	0.0147972
729.378	0.0148635
729.456	0.0148294
729.535	0.0148634
729.613	0.0148186
729.691	0.0148296
729.769	0.0148222
729.847	0.0149613
729.925	0.0147974
730.003	0.0149065
730.081	0.0148180
730.160	0.0148604
730.238	0.0148180
730.316	0.0147401
730.394	0.0148190
730.472	0.0149644
730.550	0.0149644
730.628	0.0148936
730.706	0.0147702
730.785	0.0149635
730.863	0.0148841
730.941	0.0148993
731.019	0.0149443
731.097	0.0147126
731.175	0.0146832
731.253	0.0147832
731.331	0.0148734
731.410	0.0149020
731.488	0.0148361
731.566	0.0149389
731.644	0.0148647
731.722	0.0147794
731.800	0.0147951
731.878	0.0146868
731.956	0.0148228
732.035	0.0147978
732.113	0.0147053
732.191	0.0147150
732.269	0.0148544
732.347	0.0148481
732.425	0.0148701
732.503	0.0148514
732.581	0.0149223
732.660	0.0149052
732.738	0.0148157
732.816	0.0147704
732.894	0.0148237
732.972	0.0148819
733.050	0.0148105
733.128	0.0147811
733.206	0.0149587
733.285	0.0147955
733.363	0.0148611
733.441	0.0149357
733.519	0.0147802
733.597	0.0147969
733.675	0.0149468
733.753	0.0147837
733.831	0.0147638
733.910	0.0149284
733.988	0.0149452
734.066	0.0149390
734.144	0.0147317
734.222	0.0148811
734.300	0.0149946
734.378	0.0148585
734.456	0.0150157
734.535	0.0148287
734.613	0.0148697
734.691	0.0148634
734.769	0.0149744
734.847	0.0149773
734.925	0.0150109
735.003	0.0149442
735.081	0.0150445
735.160	0.0150031
735.238	0.0148480
735.316	0.0149129
735.394	0.0152008
735.472	0.0150185
735.550	0.0148184
735.628	0.0150610
735.706	0.0149725
735.785	0.0149300
735.863	0.0149120
735.941	0.0150215
736.019	0.0150271
736.097	0.0149809
736.175	0.0149414
736.253	0.0149306
736.331	0.0149450
736.410	0.0149352
736.488	0.0149583
736.566	0.0150269
736.644	0.0150405
736.722	0.0149542
736.800	0.0149191
736.878	0.0148692
736.956	0.0149686
737.035	0.0149138
737.113	0.0149229
737.191	0.0148766
737.269	0.0148901
737.347	0.0147807
737.425	0.0148872
737.503	0.0149438
737.581	0.0148695
737.660	0.0148289
737.738	0.0149197
737.816	0.0148023
737.894	0.0148557
737.972	0.0149487
738.050	0.0147822
738.128	0.0148154
738.206	0.0147184
738.285	0.0149647
738.363	0.0148966
738.441	0.0148157
738.519	0.0147892
738.597	0.0147917
738.675	0.0147584
738.753	0.0148147
738.831	0.0147684
738.910	0.0148225
738.988	0.0146686
739.066	0.0148232
739.144	0.0148242
739.222	0.0146604
739.300	0.0148349
739.378	0.0147689
739.456	0.0147499
739.535	0.0148254
739.613	0.0148528
739.691	0.0147834
739.769	0.0147583
739.847	0.0148556
739.925	0.0147922
740.003	0.0148514
740.081	0.0147099
740.160	0.0145686
740.238	0.0148256
740.316	0.0148024
740.394	0.0148939
740.472	0.0147886
740.550	0.0147151
740.628	0.0146726
740.706	0.0147804
740.785	0.0147512
740.863	0.0148436
740.941	0.0148911
741.019	0.0147200
741.097	0.0147723
741.175	0.0148654
741.253	0.0147915
741.331	0.0148440
741.410	0.0149110
741.488	0.0149100
741.566	0.0148817
741.644	0.0148959
741.722	0.0148752
741.800	0.0148702
741.878	0.0149610
741.956	0.0149423
742.035	0.0149518
742.113	0.0149400
742.191	0.0150198
742.269	0.0149241
742.347	0.0149483
742.425	0.0147663
742.503	0.0147221
742.581	0.0150031
742.660	0.0151133
742.738	0.0148807
742.816	0.0148631
742.894	0.0149568
742.972	0.0148473
743.050	0.0149396
743.128	0.0148273
743.206	0.0147571
743.285	0.0148917
743.363	0.0148727
743.441	0.0148052
743.519	0.0147865
743.597	0.0148324
743.675	0.0148647
743.753	0.0147785
743.831	0.0147930
743.910	0.0150061
743.988	0.0148837
744.066	0.0148177
744.144	0.0148558
744.222	0.0148647
744.300	0.0149206
744.378	0.0149616
744.456	0.0149763
744.535	0.0148074
744.613	0.0148064
744.691	0.0148092
744.769	0.0149106
744.847	0.0149529
744.925	0.0149792
745.003	0.0149548
745.081	0.0147847
745.160	0.0149654
745.238	0.0149471
745.316	0.0148639
745.394	0.0148779
745.472	0.0148907
745.550	0.0149899
745.628	0.0148236
745.706	0.0147923
