05/03/2022	20:48:28	Ver.	4.1	UNKNOWN
Optical Delay	660.003261	Delta X		0.078125	Sweeps	1	Scan Rate	0/0
Coordinates	Axis 1	NaN	Axis 2	NaN	Axis 3	NaN	Axis 4	NaN	Axis 5	NaN	Axis 6	0.000000
TX Power	0.000000	RX Power	0.000000

660.003	0.0142748
660.081	0.0140965
660.160	0.0142967
660.238	0.0142550
660.316	0.0143181
660.394	0.0143309
660.472	0.0143074
660.550	0.0143569
660.628	0.0142339
660.706	0.0143315
660.785	0.0144238
660.863	0.0143578
660.941	0.0142707
661.019	0.0143175
661.097	0.0144117
661.175	0.0143573
661.253	0.0143916
661.331	0.0143359
661.410	0.0142657
661.488	0.0143148
661.566	0.0144620
661.644	0.0143932
661.722	0.0143867
661.800	0.0142385
661.878	0.0143681
661.956	0.0144198
662.035	0.0143817
662.113	0.0143093
662.191	0.0142469
662.269	0.0143876
662.347	0.0142902
662.425	0.0142716
662.503	0.0143878
662.581	0.0142633
662.660	0.0142478
662.738	0.0141602
662.816	0.0142235
662.894	0.0143392
662.972	0.0143119
663.050	0.0142612
663.128	0.0142313
663.206	0.0143320
663.285	0.0141877
663.363	0.0141455
663.441	0.0142284
663.519	0.0143452
663.597	0.0142183
663.675	0.0142504
663.753	0.0142419
663.831	0.0142930
663.910	0.0141608
663.988	0.0141324
664.066	0.0141856
664.144	0.0141715
664.222	0.0143683
664.300	0.0141165
664.378	0.0142419
664.456	0.0142303
664.535	0.0143094
664.613	0.0141836
664.691	0.0143836
664.769	0.0143068
664.847	0.0142718
664.925	0.0142722
665.003	0.0143256
665.081	0.0143555
665.160	0.0142582
665.238	0.0141296
665.316	0.0143767
665.394	0.0143202
665.472	0.0142617
665.550	0.0142886
665.628	0.0141913
665.706	0.0142049
665.785	0.0143971
665.863	0.0143275
665.941	0.0142887
666.019	0.0142300
666.097	0.0143894
666.175	0.0143198
666.253	0.0142284
666.331	0.0142685
666.410	0.0141386
666.488	0.0142356
666.566	0.0142358
666.644	0.0142002
666.722	0.0143060
666.800	0.0142047
666.878	0.0142173
666.956	0.0141428
667.035	0.0141924
667.113	0.0141489
667.191	0.0142493
667.269	0.0141581
667.347	0.0140810
667.425	0.0142448
667.503	0.0143167
667.581	0.0142817
667.660	0.0142281
667.738	0.0142645
667.816	0.0142918
667.894	0.0143194
667.972	0.0142961
668.050	0.0142474
668.128	0.0140948
668.206	0.0142317
668.285	0.0143822
668.363	0.0142355
668.441	0.0142742
668.519	0.0142803
668.597	0.0143098
668.675	0.0142960
668.753	0.0143066
668.831	0.0141679
668.910	0.0143159
668.988	0.0141704
669.066	0.0143388
669.144	0.0142656
669.222	0.0142925
669.300	0.0143246
669.378	0.0142607
669.456	0.0142873
669.535	0.0142566
669.613	0.0142004
669.691	0.0141759
669.769	0.0143189
669.847	0.0141642
669.925	0.0142636
670.003	0.0142173
670.081	0.0141638
670.160	0.0142708
670.238	0.0141569
670.316	0.0140655
670.394	0.0141801
670.472	0.0141312
670.550	0.0141521
670.628	0.0143372
670.706	0.0141581
670.785	0.0141326
670.863	0.0142307
670.941	0.0142907
671.019	0.0143484
671.097	0.0141737
671.175	0.0141881
671.253	0.0141927
671.331	0.0141721
671.410	0.0141383
671.488	0.0143399
671.566	0.0142350
671.644	0.0142395
671.722	0.0142319
671.800	0.0142086
671.878	0.0143075
671.956	0.0142200
672.035	0.0142065
672.113	0.0142279
672.191	0.0142307
672.269	0.0142551
672.347	0.0142310
672.425	0.0142628
672.503	0.0141132
672.581	0.0143366
672.660	0.0143366
672.738	0.0142160
672.816	0.0142695
672.894	0.0142809
672.972	0.0142496
673.050	0.0142086
673.128	0.0142850
673.206	0.0142770
673.285	0.0141314
673.363	0.0143559
673.441	0.0143262
673.519	0.0142039
673.597	0.0143417
673.675	0.0143181
673.753	0.0142369
673.831	0.0144252
673.910	0.0142416
673.988	0.0143925
674.066	0.0143766
674.144	0.0142035
674.222	0.0144749
674.300	0.0143830
674.378	0.0143175
674.456	0.0142777
674.535	0.0144248
674.613	0.0143495
674.691	0.0142793
674.769	0.0143842
674.847	0.0143862
674.925	0.0142940
675.003	0.0143126
675.081	0.0142047
675.160	0.0142563
675.238	0.0143806
675.316	0.0143742
675.394	0.0141998
675.472	0.0142808
675.550	0.0143646
675.628	0.0141853
675.706	0.0142617
675.785	0.0144640
675.863	0.0144213
675.941	0.0142449
676.019	0.0143551
676.097	0.0144077
676.175	0.0142793
676.253	0.0142828
676.331	0.0143663
676.410	0.0143758
676.488	0.0143493
676.566	0.0144623
676.644	0.0143968
676.722	0.0144690
676.800	0.0143507
676.878	0.0143699
676.956	0.0144279
677.035	0.0145596
677.113	0.0142275
677.191	0.0143124
677.269	0.0142399
677.347	0.0143301
677.425	0.0144642
677.503	0.0143139
677.581	0.0143564
677.660	0.0143916
677.738	0.0143462
677.816	0.0143471
677.894	0.0142754
677.972	0.0142020
678.050	0.0143452
678.128	0.0141882
678.206	0.0142297
678.285	0.0141467
678.363	0.0142965
678.441	0.0142596
678.519	0.0142060
678.597	0.0141908
678.675	0.0142629
678.753	0.0143007
678.831	0.0142925
678.910	0.0143082
678.988	0.0142606
679.066	0.0142616
679.144	0.0141182
679.222	0.0141964
679.300	0.0142688
679.378	0.0140930
679.456	0.0141275
679.535	0.0142274
679.613	0.0142460
679.691	0.0141531
679.769	0.0141948
679.847	0.0143185
679.925	0.0141593
680.003	0.0140961
680.081	0.0142699
680.160	0.0141688
680.238	0.0143045
680.316	0.0142272
680.394	0.0143228
680.472	0.0142411
680.550	0.0143716
680.628	0.0142484
680.706	0.0144030
680.785	0.0143344
680.863	0.0142828
680.941	0.0142525
681.019	0.0143669
681.097	0.0144273
681.175	0.0143592
681.253	0.0143318
681.331	0.0143272
681.410	0.0143695
681.488	0.0142405
681.566	0.0142793
681.644	0.0143378
681.722	0.0143414
681.800	0.0143803
681.878	0.0143049
681.956	0.0142934
682.035	0.0142995
682.113	0.0143543
682.191	0.0142274
682.269	0.0142954
682.347	0.0142894
682.425	0.0142537
682.503	0.0143559
682.581	0.0143444
682.660	0.0140659
682.738	0.0142766
682.816	0.0143114
682.894	0.0142760
682.972	0.0142135
683.050	0.0142719
683.128	0.0141071
683.206	0.0143819
683.285	0.0142474
683.363	0.0143069
683.441	0.0143636
683.519	0.0143111
683.597	0.0142420
683.675	0.0143684
683.753	0.0144151
683.831	0.0141096
683.910	0.0142102
683.988	0.0143319
684.066	0.0142696
684.144	0.0140368
684.222	0.0142269
684.300	0.0142488
684.378	0.0142744
684.456	0.0141414
684.535	0.0140878
684.613	0.0142487
684.691	0.0140841
684.769	0.0139689
684.847	0.0141269
684.925	0.0140995
685.003	0.0141452
685.081	0.0140307
685.160	0.0141142
685.238	0.0141843
685.316	0.0142300
685.394	0.0141083
685.472	0.0142140
685.550	0.0142005
685.628	0.0141779
685.706	0.0143029
685.785	0.0142253
685.863	0.0141919
685.941	0.0143547
686.019	0.0142453
686.097	0.0143298
686.175	0.0141292
686.253	0.0142999
686.331	0.0142165
686.410	0.0141986
686.488	0.0142559
686.566	0.0142477
686.644	0.0143806
686.722	0.0140708
686.800	0.0142987
686.878	0.0141586
686.956	0.0141268
687.035	0.0142470
687.113	0.0141479
687.191	0.0141155
687.269	0.0141324
687.347	0.0143118
687.425	0.0144422
687.503	0.0142640
687.581	0.0142795
687.660	0.0143078
687.738	0.0143094
687.816	0.0143089
687.894	0.0143900
687.972	0.0142831
688.050	0.0142382
688.128	0.0142765
688.206	0.0142281
688.285	0.0142857
688.363	0.0141943
688.441	0.0142051
688.519	0.0142419
688.597	0.0143162
688.675	0.0141869
688.753	0.0140926
688.831	0.0141962
688.910	0.0141798
688.988	0.0140710
689.066	0.0142692
689.144	0.0141363
689.222	0.0141641
689.300	0.0142037
689.378	0.0141693
689.456	0.0142264
689.535	0.0143578
689.613	0.0141547
689.691	0.0142295
689.769	0.0141515
689.847	0.0141135
689.925	0.0140334
690.003	0.0140948
690.081	0.0141285
690.160	0.0140993
690.238	0.0142354
690.316	0.0141067
690.394	0.0142044
690.472	0.0141067
690.550	0.0142207
690.628	0.0142671
690.706	0.0141679
690.785	0.0142575
690.863	0.0141421
690.941	0.0140884
691.019	0.0142821
691.097	0.0142857
691.175	0.0141424
691.253	0.0142888
691.331	0.0141882
691.410	0.0142097
691.488	0.0141778
691.566	0.0141251
691.644	0.0141908
691.722	0.0141240
691.800	0.0142351
691.878	0.0142475
691.956	0.0142104
692.035	0.0143190
692.113	0.0141826
692.191	0.0142427
692.269	0.0143716
692.347	0.0143143
692.425	0.0142271
692.503	0.0144017
692.581	0.0143462
692.660	0.0141933
692.738	0.0142274
692.816	0.0142951
692.894	0.0142841
692.972	0.0142943
693.050	0.0142388
693.128	0.0142554
693.206	0.0141598
693.285	0.0142278
693.363	0.0141756
693.441	0.0141827
693.519	0.0141784
693.597	0.0142165
693.675	0.0141648
693.753	0.0143118
693.831	0.0142924
693.910	0.0142845
693.988	0.0143929
694.066	0.0142876
694.144	0.0143922
694.222	0.0142739
694.300	0.0142689
694.378	0.0143768
694.456	0.0142320
694.535	0.0144050
694.613	0.0143242
694.691	0.0143174
694.769	0.0143012
694.847	0.0143469
694.925	0.0142837
695.003	0.0144611
695.081	0.0142954
695.160	0.0142272
695.238	0.0143513
695.316	0.0142946
695.394	0.0143924
695.472	0.0143147
695.550	0.0143614
695.628	0.0144010
695.706	0.0143620
695.785	0.0142227
695.863	0.0144489
695.941	0.0145809
696.019	0.0143663
696.097	0.0143971
696.175	0.0143635
696.253	0.0143553
696.331	0.0143794
696.410	0.0143692
696.488	0.0143675
696.566	0.0143594
696.644	0.0143236
696.722	0.0143034
696.800	0.0143147
696.878	0.0143002
696.956	0.0142171
697.035	0.0143510
697.113	0.0143693
697.191	0.0142771
697.269	0.0143269
697.347	0.0143883
697.425	0.0144553
697.503	0.0143925
697.581	0.0144591
697.660	0.0144434
697.738	0.0143929
697.816	0.0142650
697.894	0.0144193
697.972	0.0141689
698.050	0.0143276
698.128	0.0143833
698.206	0.0142960
698.285	0.0143219
698.363	0.0142376
698.441	0.0142697
698.519	0.0143805
698.597	0.0143448
698.675	0.0144188
698.753	0.0144041
698.831	0.0142884
698.910	0.0144545
698.988	0.0143766
699.066	0.0142918
699.144	0.0144046
699.222	0.0144590
699.300	0.0143678
699.378	0.0142728
699.456	0.0143568
699.535	0.0144054
699.613	0.0144231
699.691	0.0145036
699.769	0.0145267
699.847	0.0143523
699.925	0.0142668
700.003	0.0143636
700.081	0.0144402
700.160	0.0143800
700.238	0.0144814
700.316	0.0143555
700.394	0.0144048
700.472	0.0143685
700.550	0.0144917
700.628	0.0144310
700.706	0.0145029
700.785	0.0143877
700.863	0.0144197
700.941	0.0143595
701.019	0.0142868
701.097	0.0143075
701.175	0.0144979
701.253	0.0143867
701.331	0.0142844
701.410	0.0142132
701.488	0.0142269
701.566	0.0144182
701.644	0.0141757
701.722	0.0142333
701.800	0.0143133
701.878	0.0143131
701.956	0.0143501
702.035	0.0142142
702.113	0.0144251
702.191	0.0143526
702.269	0.0144377
702.347	0.0143611
702.425	0.0143236
702.503	0.0142636
702.581	0.0144119
702.660	0.0143430
702.738	0.0143683
702.816	0.0143723
702.894	0.0143560
702.972	0.0143727
703.050	0.0142372
703.128	0.0142329
703.206	0.0142168
703.285	0.0142774
703.363	0.0142226
703.441	0.0143290
703.519	0.0142557
703.597	0.0143264
703.675	0.0143569
703.753	0.0142309
703.831	0.0141029
703.910	0.0141381
703.988	0.0142824
704.066	0.0143389
704.144	0.0143026
704.222	0.0142914
704.300	0.0142818
704.378	0.0142709
704.456	0.0141287
704.535	0.0141897
704.613	0.0142749
704.691	0.0142287
704.769	0.0141885
704.847	0.0141513
704.925	0.0143465
705.003	0.0142291
705.081	0.0143428
705.160	0.0142770
705.238	0.0142651
705.316	0.0143095
705.394	0.0142310
705.472	0.0143108
705.550	0.0142581
705.628	0.0142139
705.706	0.0142256
705.785	0.0141904
705.863	0.0143533
705.941	0.0143223
706.019	0.0142165
706.097	0.0142064
706.175	0.0143568
706.253	0.0141961
706.331	0.0143245
706.410	0.0143832
706.488	0.0143067
706.566	0.0142049
706.644	0.0142920
706.722	0.0143816
706.800	0.0143179
706.878	0.0142307
706.956	0.0142999
707.035	0.0141602
707.113	0.0143013
707.191	0.0141828
707.269	0.0141942
707.347	0.0143349
707.425	0.0142129
707.503	0.0143408
707.581	0.0141783
707.660	0.0141909
707.738	0.0143909
707.816	0.0143422
707.894	0.0142340
707.972	0.0142965
708.050	0.0144506
708.128	0.0142417
708.206	0.0142741
708.285	0.0142705
708.363	0.0143407
708.441	0.0143545
708.519	0.0143209
708.597	0.0142599
708.675	0.0142718
708.753	0.0144369
708.831	0.0141896
708.910	0.0143615
708.988	0.0144568
709.066	0.0142234
709.144	0.0142135
709.222	0.0140421
709.300	0.0141943
709.378	0.0143642
709.456	0.0142067
709.535	0.0142612
709.613	0.0141601
709.691	0.0142493
709.769	0.0142692
709.847	0.0143059
709.925	0.0142241
710.003	0.0144234
710.081	0.0143975
710.160	0.0142740
710.238	0.0142758
710.316	0.0142121
710.394	0.0143726
710.472	0.0143164
710.550	0.0143595
710.628	0.0141251
710.706	0.0142156
710.785	0.0143450
710.863	0.0142869
710.941	0.0143165
711.019	0.0141863
711.097	0.0141940
711.175	0.0143421
711.253	0.0142930
711.331	0.0142017
711.410	0.0140787
711.488	0.0142761
711.566	0.0143563
711.644	0.0142883
711.722	0.0141874
711.800	0.0142086
711.878	0.0143936
711.956	0.0141936
712.035	0.0141565
712.113	0.0142388
712.191	0.0143354
712.269	0.0142094
712.347	0.0141238
712.425	0.0141007
712.503	0.0142205
712.581	0.0141169
712.660	0.0142110
712.738	0.0142989
712.816	0.0143140
712.894	0.0141453
712.972	0.0141616
713.050	0.0143462
713.128	0.0141433
713.206	0.0142277
713.285	0.0143417
713.363	0.0143301
713.441	0.0141869
713.519	0.0142793
713.597	0.0143884
713.675	0.0143149
713.753	0.0143404
713.831	0.0142960
713.910	0.0143336
713.988	0.0143038
714.066	0.0143375
714.144	0.0142785
714.222	0.0142152
714.300	0.0142579
714.378	0.0144698
714.456	0.0143131
714.535	0.0142012
714.613	0.0142904
714.691	0.0142316
714.769	0.0142683
714.847	0.0142892
714.925	0.0142342
715.003	0.0142743
715.081	0.0143010
715.160	0.0142360
715.238	0.0143438
715.316	0.0142502
715.394	0.0142506
715.472	0.0143681
715.550	0.0142340
715.628	0.0142225
715.706	0.0142620
715.785	0.0142818
715.863	0.0142140
715.941	0.0142986
716.019	0.0142310
716.097	0.0142339
716.175	0.0143545
716.253	0.0142519
716.331	0.0143143
716.410	0.0143855
716.488	0.0143621
716.566	0.0143003
716.644	0.0144370
716.722	0.0142959
716.800	0.0143965
716.878	0.0142865
716.956	0.0143713
717.035	0.0142220
717.113	0.0142808
717.191	0.0142566
717.269	0.0142575
717.347	0.0142581
717.425	0.0143360
717.503	0.0142679
717.581	0.0142632
717.660	0.0143146
717.738	0.0143685
717.816	0.0142710
717.894	0.0142810
717.972	0.0143076
718.050	0.0143938
718.128	0.0143366
718.206	0.0144007
718.285	0.0143119
718.363	0.0143919
718.441	0.0144118
718.519	0.0143225
718.597	0.0142347
718.675	0.0141611
718.753	0.0141495
718.831	0.0143698
718.910	0.0143037
718.988	0.0141491
719.066	0.0143343
719.144	0.0143317
719.222	0.0143607
719.300	0.0143199
719.378	0.0143115
719.456	0.0142645
719.535	0.0143646
719.613	0.0144030
719.691	0.0145023
719.769	0.0145773
719.847	0.0143953
719.925	0.0143172
720.003	0.0144287
720.081	0.0144995
720.160	0.0143349
720.238	0.0143244
720.316	0.0145171
720.394	0.0144350
720.472	0.0144759
720.550	0.0144892
720.628	0.0144804
720.706	0.0145176
720.785	0.0144907
720.863	0.0143884
720.941	0.0144337
721.019	0.0144971
721.097	0.0145484
721.175	0.0144221
721.253	0.0144721
721.331	0.0145619
721.410	0.0143895
721.488	0.0144181
721.566	0.0144212
721.644	0.0143470
721.722	0.0143091
721.800	0.0143269
721.878	0.0144186
721.956	0.0142542
722.035	0.0143270
722.113	0.0143896
722.191	0.0144666
722.269	0.0142577
722.347	0.0142769
722.425	0.0143584
722.503	0.0144490
722.581	0.0143651
722.660	0.0144122
722.738	0.0144524
722.816	0.0143506
722.894	0.0142534
722.972	0.0143185
723.050	0.0144347
723.128	0.0143013
723.206	0.0143594
723.285	0.0142563
723.363	0.0145485
723.441	0.0143970
723.519	0.0142462
723.597	0.0142656
723.675	0.0142550
723.753	0.0142941
723.831	0.0143564
723.910	0.0142690
723.988	0.0142043
724.066	0.0141811
724.144	0.0142463
724.222	0.0143925
724.300	0.0142552
724.378	0.0143371
724.456	0.0142000
724.535	0.0142334
724.613	0.0144071
724.691	0.0142232
724.769	0.0142288
724.847	0.0141965
724.925	0.0143338
725.003	0.0143001
725.081	0.0142587
725.160	0.0142261
725.238	0.0141415
725.316	0.0142554
725.394	0.0142016
725.472	0.0141996
725.550	0.0143725
725.628	0.0142359
725.706	0.0142496
725.785	0.0142352
725.863	0.0141312
725.941	0.0143100
726.019	0.0141833
726.097	0.0142154
726.175	0.0143761
726.253	0.0141992
726.331	0.0141853
726.410	0.0143014
726.488	0.0144565
726.566	0.0143449
726.644	0.0143134
726.722	0.0143649
726.800	0.0142944
726.878	0.0143120
726.956	0.0143155
727.035	0.0142400
727.113	0.0143231
727.191	0.0144025
727.269	0.0144901
727.347	0.0144275
727.425	0.0144632
727.503	0.0143982
727.581	0.0142513
727.660	0.0144179
727.738	0.0145590
727.816	0.0145609
727.894	0.0142110
727.972	0.0143954
728.050	0.0142924
728.128	0.0144066
728.206	0.0143348
728.285	0.0143551
728.363	0.0143735
728.441	0.0143146
728.519	0.0143728
728.597	0.0143736
728.675	0.0143346
728.753	0.0141948
728.831	0.0143826
728.910	0.0144035
728.988	0.0143779
729.066	0.0142403
729.144	0.0142251
729.222	0.0143489
729.300	0.0142488
729.378	0.0144054
729.456	0.0142580
729.535	0.0142429
729.613	0.0141912
729.691	0.0142303
729.769	0.0141913
729.847	0.0143250
729.925	0.0143511
730.003	0.0142656
730.081	0.0143157
730.160	0.0143076
730.238	0.0141834
730.316	0.0141156
730.394	0.0141560
730.472	0.0143161
730.550	0.0142046
730.628	0.0143498
730.706	0.0143410
730.785	0.0139658
730.863	0.0143073
730.941	0.0143661
731.019	0.0143229
731.097	0.0141733
731.175	0.0142535
731.253	0.0142760
731.331	0.0143211
731.410	0.0140395
731.488	0.0142517
731.566	0.0142679
731.644	0.0144051
731.722	0.0143806
731.800	0.0142117
731.878	0.0142585
731.956	0.0144041
732.035	0.0142681
732.113	0.0142729
732.191	0.0143620
732.269	0.0141656
732.347	0.0142241
732.425	0.0141454
732.503	0.0143106
732.581	0.0144455
732.660	0.0141795
732.738	0.0142123
732.816	0.0140948
732.894	0.0141754
732.972	0.0142303
733.050	0.0142567
733.128	0.0142676
733.206	0.0141353
733.285	0.0140484
733.363	0.0142703
733.441	0.0141852
733.519	0.0143003
733.597	0.0141749
733.675	0.0143211
733.753	0.0141909
733.831	0.0142733
733.910	0.0144398
733.988	0.0143064
734.066	0.0141506
734.144	0.0142397
734.222	0.0142120
734.300	0.0143187
734.378	0.0141888
734.456	0.0142663
734.535	0.0144059
734.613	0.0142893
734.691	0.0142808
734.769	0.0142220
734.847	0.0142668
734.925	0.0143595
735.003	0.0143299
735.081	0.0142970
735.160	0.0142226
735.238	0.0144533
735.316	0.0142604
735.394	0.0141495
735.472	0.0142704
735.550	0.0143212
735.628	0.0143164
735.706	0.0142169
735.785	0.0141532
735.863	0.0141784
735.941	0.0143463
736.019	0.0143696
736.097	0.0142428
736.175	0.0141232
736.253	0.0142857
736.331	0.0142883
736.410	0.0143013
736.488	0.0142535
736.566	0.0143711
736.644	0.0143423
736.722	0.0143449
736.800	0.0142731
736.878	0.0142812
736.956	0.0144399
737.035	0.0144854
737.113	0.0142058
737.191	0.0143269
737.269	0.0142387
737.347	0.0142922
737.425	0.0143594
737.503	0.0143374
737.581	0.0143465
737.660	0.0142686
737.738	0.0141875
737.816	0.0142687
737.894	0.0143111
737.972	0.0142712
738.050	0.0143295
738.128	0.0143732
738.206	0.0142287
738.285	0.0140363
738.363	0.0142313
738.441	0.0142934
738.519	0.0141795
738.597	0.0143514
738.675	0.0143126
738.753	0.0143288
738.831	0.0141061
738.910	0.0141702
738.988	0.0143752
739.066	0.0142597
739.144	0.0142664
739.222	0.0142171
739.300	0.0140832
739.378	0.0142596
739.456	0.0142931
739.535	0.0142702
739.613	0.0143319
739.691	0.0142956
739.769	0.0143704
739.847	0.0142327
739.925	0.0141763
740.003	0.0143727
740.081	0.0143449
740.160	0.0143935
740.238	0.0143115
740.316	0.0142109
740.394	0.0142102
740.472	0.0144822
740.550	0.0143867
740.628	0.0141144
740.706	0.0143491
740.785	0.0142769
740.863	0.0142603
740.941	0.0143475
741.019	0.0145101
741.097	0.0143890
741.175	0.0142332
741.253	0.0144116
741.331	0.0143407
741.410	0.0143111
741.488	0.0143462
741.566	0.0143774
741.644	0.0144101
741.722	0.0143552
741.800	0.0142883
741.878	0.0142935
741.956	0.0143538
742.035	0.0144234
742.113	0.0141730
742.191	0.0144367
742.269	0.0143781
742.347	0.0145394
742.425	0.0142944
742.503	0.0142909
742.581	0.0143612
742.660	0.0142788
742.738	0.0142336
742.816	0.0142321
742.894	0.0142915
742.972	0.0141924
743.050	0.0143821
743.128	0.0143200
743.206	0.0143217
743.285	0.0144225
743.363	0.0142165
743.441	0.0142378
743.519	0.0142706
743.597	0.0143643
743.675	0.0142731
743.753	0.0143068
743.831	0.0142947
743.910	0.0142290
743.988	0.0143277
744.066	0.0143091
744.144	0.0142290
744.222	0.0143476
744.300	0.0142930
744.378	0.0142110
744.456	0.0142132
744.535	0.0142701
744.613	0.0142712
744.691	0.0141630
744.769	0.0141647
744.847	0.0142740
744.925	0.0141187
745.003	0.0141061
745.081	0.0142600
745.160	0.0141160
745.238	0.0143372
745.316	0.0143118
745.394	0.0139906
745.472	0.0141499
745.550	0.0140675
745.628	0.0141735
745.706	0.0141308
