05/20/2022	16:47:28	Ver.	4.1	UNKNOWN
Optical Delay	639.982744	Delta X		0.078125	Sweeps	1	Scan Rate	0/0
Coordinates	Axis 1	NaN	Axis 2	NaN	Axis 3	NaN	Axis 4	NaN	Axis 5	NaN	Axis 6	0.000000
TX Power	0.000000	RX Power	0.000000

639.983	0.0143719
640.061	0.0144353
640.139	0.0143186
640.217	0.0142135
640.295	0.0143687
640.373	0.0143127
640.451	0.0142899
640.530	0.0144381
640.608	0.0142259
640.686	0.0142619
640.764	0.0142628
640.842	0.0143434
640.920	0.0143143
640.998	0.0142535
641.076	0.0143378
641.155	0.0142328
641.233	0.0143118
641.311	0.0142971
641.389	0.0142351
641.467	0.0142873
641.545	0.0142977
641.623	0.0142831
641.701	0.0142885
641.780	0.0143111
641.858	0.0142702
641.936	0.0143996
642.014	0.0144246
642.092	0.0143721
642.170	0.0144081
642.248	0.0143453
642.326	0.0142893
642.405	0.0141914
642.483	0.0142691
642.561	0.0142188
642.639	0.0144060
642.717	0.0142226
642.795	0.0143122
642.873	0.0142928
642.951	0.0141277
643.030	0.0143023
643.108	0.0142011
643.186	0.0142974
643.264	0.0142195
643.342	0.0144849
643.420	0.0145684
643.498	0.0143027
643.576	0.0144141
643.655	0.0143412
643.733	0.0145100
643.811	0.0144993
643.889	0.0143147
643.967	0.0143748
644.045	0.0145115
644.123	0.0144951
644.201	0.0143764
644.280	0.0144107
644.358	0.0143834
644.436	0.0142996
644.514	0.0142742
644.592	0.0145145
644.670	0.0144867
644.748	0.0144177
644.826	0.0144006
644.905	0.0143446
644.983	0.0143301
645.061	0.0144408
645.139	0.0143312
645.217	0.0144321
645.295	0.0144135
645.373	0.0144721
645.451	0.0144050
645.530	0.0144203
645.608	0.0144661
645.686	0.0144199
645.764	0.0144288
645.842	0.0143649
645.920	0.0143423
645.998	0.0143398
646.076	0.0143116
646.155	0.0144150
646.233	0.0144802
646.311	0.0142799
646.389	0.0142496
646.467	0.0143356
646.545	0.0143625
646.623	0.0143497
646.701	0.0145045
646.780	0.0143697
646.858	0.0142873
646.936	0.0144326
647.014	0.0143829
647.092	0.0144180
647.170	0.0145225
647.248	0.0144672
647.326	0.0142847
647.405	0.0143739
647.483	0.0144810
647.561	0.0143047
647.639	0.0143673
647.717	0.0142094
647.795	0.0144759
647.873	0.0143525
647.951	0.0143320
648.030	0.0142850
648.108	0.0143399
648.186	0.0144212
648.264	0.0143055
648.342	0.0143909
648.420	0.0142803
648.498	0.0143849
648.576	0.0143011
648.655	0.0143192
648.733	0.0142135
648.811	0.0143237
648.889	0.0142570
648.967	0.0142177
649.045	0.0142732
649.123	0.0143771
649.201	0.0143698
649.280	0.0143244
649.358	0.0143298
649.436	0.0143316
649.514	0.0142181
649.592	0.0142234
649.670	0.0142686
649.748	0.0142009
649.826	0.0142407
649.905	0.0142318
649.983	0.0142116
650.061	0.0144040
650.139	0.0142419
650.217	0.0141321
650.295	0.0143523
650.373	0.0142690
650.451	0.0141075
650.530	0.0142551
650.608	0.0141518
650.686	0.0142300
650.764	0.0140356
650.842	0.0141222
650.920	0.0141183
650.998	0.0140894
651.076	0.0141985
651.155	0.0142310
651.233	0.0141375
651.311	0.0141242
651.389	0.0140860
651.467	0.0141875
651.545	0.0140314
651.623	0.0141761
651.701	0.0140617
651.780	0.0140074
651.858	0.0141470
651.936	0.0139248
652.014	0.0139983
652.092	0.0140196
652.170	0.0140061
652.248	0.0140639
652.326	0.0140350
652.405	0.0139491
652.483	0.0139651
652.561	0.0140540
652.639	0.0140757
652.717	0.0139314
652.795	0.0139732
652.873	0.0140237
652.951	0.0140688
653.030	0.0141251
653.108	0.0139898
653.186	0.0138763
653.264	0.0139548
653.342	0.0140015
653.420	0.0139538
653.498	0.0140065
653.576	0.0140351
653.655	0.0139468
653.733	0.0139196
653.811	0.0141518
653.889	0.0139037
653.967	0.0140917
654.045	0.0141976
654.123	0.0141251
654.201	0.0140239
654.280	0.0141538
654.358	0.0141663
654.436	0.0141663
654.514	0.0141286
654.592	0.0141675
654.670	0.0141663
654.748	0.0142802
654.826	0.0142267
654.905	0.0141800
654.983	0.0144209
655.061	0.0142917
655.139	0.0141232
655.217	0.0142432
655.295	0.0142635
655.373	0.0142257
655.451	0.0142436
655.530	0.0143836
655.608	0.0143654
655.686	0.0143495
655.764	0.0143829
655.842	0.0143108
655.920	0.0143772
655.998	0.0143789
656.076	0.0142284
656.155	0.0143110
656.233	0.0143485
656.311	0.0143056
656.389	0.0144089
656.467	0.0143731
656.545	0.0142658
656.623	0.0145004
656.701	0.0142992
656.780	0.0142596
656.858	0.0143513
656.936	0.0143715
657.014	0.0144013
657.092	0.0143238
657.170	0.0142357
657.248	0.0141599
657.326	0.0142236
657.405	0.0142701
657.483	0.0144160
657.561	0.0141946
657.639	0.0143056
657.717	0.0141999
657.795	0.0143221
657.873	0.0142706
657.951	0.0141470
658.030	0.0142816
658.108	0.0141451
658.186	0.0142078
658.264	0.0142709
658.342	0.0142420
658.420	0.0142487
658.498	0.0143644
658.576	0.0141415
658.655	0.0141898
658.733	0.0142205
658.811	0.0143513
658.889	0.0143327
658.967	0.0142992
659.045	0.0144071
659.123	0.0143993
659.201	0.0142964
659.280	0.0144952
659.358	0.0144707
659.436	0.0144885
659.514	0.0146294
659.592	0.0145569
659.670	0.0146275
659.748	0.0145978
659.826	0.0144576
659.905	0.0146089
659.983	0.0145135
660.061	0.0145435
660.139	0.0144937
660.217	0.0145400
660.295	0.0145167
660.373	0.0145405
660.451	0.0146381
660.530	0.0145715
660.608	0.0146648
660.686	0.0146809
660.764	0.0145714
660.842	0.0146274
660.920	0.0145191
660.998	0.0146992
661.076	0.0147678
661.155	0.0144938
661.233	0.0145385
661.311	0.0145145
661.389	0.0145155
661.467	0.0145816
661.545	0.0145228
661.623	0.0145310
661.701	0.0144946
661.780	0.0143865
661.858	0.0143739
661.936	0.0143620
662.014	0.0144727
662.092	0.0144775
662.170	0.0143782
662.248	0.0144367
662.326	0.0143575
662.405	0.0143545
662.483	0.0145174
662.561	0.0143032
662.639	0.0142739
662.717	0.0142276
662.795	0.0142277
662.873	0.0142446
662.951	0.0141428
663.030	0.0142365
663.108	0.0143754
663.186	0.0142635
663.264	0.0143181
663.342	0.0142449
663.420	0.0143003
663.498	0.0143930
663.576	0.0144369
663.655	0.0144912
663.733	0.0144331
663.811	0.0144021
663.889	0.0145656
663.967	0.0144353
664.045	0.0144645
664.123	0.0144626
664.201	0.0144118
664.280	0.0143349
664.358	0.0144444
664.436	0.0143490
664.514	0.0142716
664.592	0.0141538
664.670	0.0141213
664.748	0.0140615
664.826	0.0141714
664.905	0.0142234
664.983	0.0140131
665.061	0.0142177
665.139	0.0141599
665.217	0.0141742
665.295	0.0142742
665.373	0.0142695
665.451	0.0141039
665.530	0.0142145
665.608	0.0141886
665.686	0.0140955
665.764	0.0142354
665.842	0.0142786
665.920	0.0141134
665.998	0.0141293
666.076	0.0140946
666.155	0.0138787
666.233	0.0140746
666.311	0.0141021
666.389	0.0140086
666.467	0.0140936
666.545	0.0140757
666.623	0.0140991
666.701	0.0141578
666.780	0.0140797
666.858	0.0141042
666.936	0.0142479
667.014	0.0142255
667.092	0.0143496
667.170	0.0144762
667.248	0.0143667
667.326	0.0143203
667.405	0.0145444
667.483	0.0143816
667.561	0.0145344
667.639	0.0144388
667.717	0.0144830
667.795	0.0146036
667.873	0.0146274
667.951	0.0145781
668.030	0.0144584
668.108	0.0145197
668.186	0.0146751
668.264	0.0145889
668.342	0.0144456
668.420	0.0145023
668.498	0.0144327
668.576	0.0144888
668.655	0.0145332
668.733	0.0142709
668.811	0.0143082
668.889	0.0143526
668.967	0.0140454
669.045	0.0140426
669.123	0.0138646
669.201	0.0137779
669.280	0.0137962
669.358	0.0135642
669.436	0.0136630
669.514	0.0135207
669.592	0.0134615
669.670	0.0133850
669.748	0.0136411
669.826	0.0134990
669.905	0.0136532
669.983	0.0137743
670.061	0.0138097
670.139	0.0136533
670.217	0.0138112
670.295	0.0138994
670.373	0.0140385
670.451	0.0140855
670.530	0.0140462
670.608	0.0143257
670.686	0.0143599
670.764	0.0145142
670.842	0.0147627
670.920	0.0146754
670.998	0.0146636
671.076	0.0148752
671.155	0.0150337
671.233	0.0150224
671.311	0.0151435
671.389	0.0151623
671.467	0.0151910
671.545	0.0153006
671.623	0.0152903
671.701	0.0151573
671.780	0.0149908
671.858	0.0150497
671.936	0.0150708
672.014	0.0148509
672.092	0.0147116
672.170	0.0146758
672.248	0.0145727
672.326	0.0144055
672.405	0.0142602
672.483	0.0141258
672.561	0.0139265
672.639	0.0137788
672.717	0.0137629
672.795	0.0135136
672.873	0.0132668
672.951	0.0132665
673.030	0.0133007
673.108	0.0132235
673.186	0.0132290
673.264	0.0131972
673.342	0.0131039
673.420	0.0132996
673.498	0.0134268
673.576	0.0133287
673.655	0.0133825
673.733	0.0136276
673.811	0.0136410
673.889	0.0138702
673.967	0.0140181
674.045	0.0141443
674.123	0.0143771
674.201	0.0143127
674.280	0.0147839
674.358	0.0148315
674.436	0.0148534
674.514	0.0149232
674.592	0.0151895
674.670	0.0154610
674.748	0.0155116
674.826	0.0155798
674.905	0.0155260
674.983	0.0155005
675.061	0.0157466
675.139	0.0156030
675.217	0.0155463
675.295	0.0155495
675.373	0.0155108
675.451	0.0153290
675.530	0.0151386
675.608	0.0151042
675.686	0.0150579
675.764	0.0147809
675.842	0.0147356
675.920	0.0145535
675.998	0.0144145
676.076	0.0143002
676.155	0.0141525
676.233	0.0138988
676.311	0.0137803
676.389	0.0138857
676.467	0.0136322
676.545	0.0134012
676.623	0.0132662
676.701	0.0132618
676.780	0.0132770
676.858	0.0132591
676.936	0.0132215
677.014	0.0133812
677.092	0.0133349
677.170	0.0134119
677.248	0.0133838
677.326	0.0135221
677.405	0.0136232
677.483	0.0138697
677.561	0.0139493
677.639	0.0139522
677.717	0.0141728
677.795	0.0142546
677.873	0.0144242
677.951	0.0145076
678.030	0.0144302
678.108	0.0146027
678.186	0.0145839
678.264	0.0147510
678.342	0.0148706
678.420	0.0149200
678.498	0.0149645
678.576	0.0148663
678.655	0.0150773
678.733	0.0149394
678.811	0.0150982
678.889	0.0151273
678.967	0.0150388
679.045	0.0149030
679.123	0.0151050
679.201	0.0150706
679.280	0.0150235
679.358	0.0147466
679.436	0.0148892
679.514	0.0148313
679.592	0.0149696
679.670	0.0148266
679.748	0.0149029
679.826	0.0147528
679.905	0.0147408
679.983	0.0147773
680.061	0.0148386
680.139	0.0148361
680.217	0.0148886
680.295	0.0147549
680.373	0.0148522
680.451	0.0148109
680.530	0.0146677
680.608	0.0148091
680.686	0.0147256
680.764	0.0146271
680.842	0.0146018
680.920	0.0143433
680.998	0.0142627
681.076	0.0142773
681.155	0.0142050
681.233	0.0140575
681.311	0.0138875
681.389	0.0138554
681.467	0.0138037
681.545	0.0136584
681.623	0.0137651
681.701	0.0135405
681.780	0.0133480
681.858	0.0133953
681.936	0.0133498
682.014	0.0134935
682.092	0.0135777
682.170	0.0135643
682.248	0.0137935
682.326	0.0138444
682.405	0.0140182
682.483	0.0142731
682.561	0.0144130
682.639	0.0144356
682.717	0.0147394
682.795	0.0147781
682.873	0.0149399
682.951	0.0149547
683.030	0.0150266
683.108	0.0151575
683.186	0.0152676
683.264	0.0154803
683.342	0.0154077
683.420	0.0155900
683.498	0.0154874
683.576	0.0154565
683.655	0.0156359
683.733	0.0156226
683.811	0.0155449
683.889	0.0154818
683.967	0.0153342
684.045	0.0151889
684.123	0.0152085
684.201	0.0149494
684.280	0.0148047
684.358	0.0146257
684.436	0.0144508
684.514	0.0142491
684.592	0.0142014
684.670	0.0140195
684.748	0.0139160
684.826	0.0136820
684.905	0.0135331
684.983	0.0135266
685.061	0.0133906
685.139	0.0134527
685.217	0.0134375
685.295	0.0135124
685.373	0.0134012
685.451	0.0134843
685.530	0.0134095
685.608	0.0134409
685.686	0.0133634
685.764	0.0135151
685.842	0.0135625
685.920	0.0136421
685.998	0.0135549
686.076	0.0137540
686.155	0.0138174
686.233	0.0138260
686.311	0.0138678
686.389	0.0140310
686.467	0.0140908
686.545	0.0139724
686.623	0.0140498
686.701	0.0142079
686.780	0.0141312
686.858	0.0141070
686.936	0.0143266
687.014	0.0142126
687.092	0.0142965
687.170	0.0143241
687.248	0.0143918
687.326	0.0143999
687.405	0.0144364
687.483	0.0144844
687.561	0.0145814
687.639	0.0148715
687.717	0.0147594
687.795	0.0148602
687.873	0.0150391
687.951	0.0149754
688.030	0.0151897
688.108	0.0153699
688.186	0.0153865
688.264	0.0154134
688.342	0.0152959
688.420	0.0153750
688.498	0.0154095
688.576	0.0153623
688.655	0.0153101
688.733	0.0152869
688.811	0.0152917
688.889	0.0152243
688.967	0.0151964
689.045	0.0149027
689.123	0.0147427
689.201	0.0145267
689.280	0.0144533
689.358	0.0141956
689.436	0.0141515
689.514	0.0138512
689.592	0.0136624
689.670	0.0136101
689.748	0.0135722
689.826	0.0132349
689.905	0.0131999
689.983	0.0130676
690.061	0.0131690
690.139	0.0130712
690.217	0.0129706
690.295	0.0128947
690.373	0.0127871
690.451	0.0129658
690.530	0.0131333
690.608	0.0131213
690.686	0.0131691
690.764	0.0134812
690.842	0.0134887
690.920	0.0138960
690.998	0.0141984
691.076	0.0143636
691.155	0.0145521
691.233	0.0148211
691.311	0.0149400
691.389	0.0150658
691.467	0.0153380
691.545	0.0154444
691.623	0.0156120
691.701	0.0155711
691.780	0.0155547
691.858	0.0157735
691.936	0.0156596
692.014	0.0155556
692.092	0.0155009
692.170	0.0153716
692.248	0.0152702
692.326	0.0152277
692.405	0.0152549
692.483	0.0148692
692.561	0.0145864
692.639	0.0144119
692.717	0.0143965
692.795	0.0142454
692.873	0.0140096
692.951	0.0139404
693.030	0.0137796
693.108	0.0137318
693.186	0.0135868
693.264	0.0135169
693.342	0.0133386
693.420	0.0132696
693.498	0.0133816
693.576	0.0133919
693.655	0.0134270
693.733	0.0133743
693.811	0.0135095
693.889	0.0135368
693.967	0.0136266
694.045	0.0137070
694.123	0.0137804
694.201	0.0139027
694.280	0.0140681
694.358	0.0142412
694.436	0.0143134
694.514	0.0145124
694.592	0.0144746
694.670	0.0145384
694.748	0.0146857
694.826	0.0147920
694.905	0.0146500
694.983	0.0147405
695.061	0.0148265
695.139	0.0147083
695.217	0.0145320
695.295	0.0145833
695.373	0.0145753
695.451	0.0145353
695.530	0.0146006
695.608	0.0145652
695.686	0.0145235
695.764	0.0144772
695.842	0.0144456
695.920	0.0145045
695.998	0.0144421
696.076	0.0145338
696.155	0.0145024
696.233	0.0145574
696.311	0.0144373
696.389	0.0144341
696.467	0.0144621
696.545	0.0143929
696.623	0.0143324
696.701	0.0144090
696.780	0.0142809
696.858	0.0143513
696.936	0.0143841
697.014	0.0145135
697.092	0.0144358
697.170	0.0145505
697.248	0.0144662
697.326	0.0144065
697.405	0.0143331
697.483	0.0144080
697.561	0.0141697
697.639	0.0141587
697.717	0.0141692
697.795	0.0141440
697.873	0.0138825
697.951	0.0138075
698.030	0.0138704
698.108	0.0137423
698.186	0.0136111
698.264	0.0136097
698.342	0.0135886
698.420	0.0135690
698.498	0.0137061
698.576	0.0135751
698.655	0.0134877
698.733	0.0137291
698.811	0.0137441
698.889	0.0136089
698.967	0.0137565
699.045	0.0138837
699.123	0.0138833
699.201	0.0139278
699.280	0.0141089
699.358	0.0142315
699.436	0.0142806
699.514	0.0145084
699.592	0.0145774
699.670	0.0147598
699.748	0.0149020
699.826	0.0148960
699.905	0.0149271
699.983	0.0151337
700.061	0.0152046
700.139	0.0151710
700.217	0.0152678
700.295	0.0152826
700.373	0.0154316
700.451	0.0156755
700.530	0.0156249
700.608	0.0155779
700.686	0.0155324
700.764	0.0154205
700.842	0.0153300
700.920	0.0151031
700.998	0.0150332
701.076	0.0148004
701.155	0.0145594
701.233	0.0143657
701.311	0.0140798
701.389	0.0138042
701.467	0.0135593
701.545	0.0134103
701.623	0.0131011
701.701	0.0130906
701.780	0.0130524
701.858	0.0129084
701.936	0.0126854
702.014	0.0127600
702.092	0.0125345
702.170	0.0125272
702.248	0.0124630
702.326	0.0124724
702.405	0.0125856
702.483	0.0126488
702.561	0.0125802
702.639	0.0128965
702.717	0.0130580
702.795	0.0132997
702.873	0.0133708
702.951	0.0137958
703.030	0.0139569
703.108	0.0141591
703.186	0.0143751
703.264	0.0149898
703.342	0.0148837
703.420	0.0150826
703.498	0.0155136
703.576	0.0157742
703.655	0.0159731
703.733	0.0159604
703.811	0.0161887
703.889	0.0162713
703.967	0.0163150
704.045	0.0165749
704.123	0.0164178
704.201	0.0162173
704.280	0.0163187
704.358	0.0162402
704.436	0.0159885
704.514	0.0158893
704.592	0.0156505
704.670	0.0153935
704.748	0.0151951
704.826	0.0149541
704.905	0.0147950
704.983	0.0145721
705.061	0.0143938
705.139	0.0141174
705.217	0.0139379
705.295	0.0139246
705.373	0.0135027
705.451	0.0135278
705.530	0.0133970
705.608	0.0133077
705.686	0.0133578
705.764	0.0132774
705.842	0.0133144
705.920	0.0133965
705.998	0.0131249
706.076	0.0131371
706.155	0.0131632
706.233	0.0131593
706.311	0.0132342
706.389	0.0131612
706.467	0.0133539
706.545	0.0133878
706.623	0.0133704
706.701	0.0133432
706.780	0.0135521
706.858	0.0137243
706.936	0.0137501
707.014	0.0138428
707.092	0.0139361
707.170	0.0140868
707.248	0.0141227
707.326	0.0141877
707.405	0.0142785
707.483	0.0142391
707.561	0.0143024
707.639	0.0144434
707.717	0.0144530
707.795	0.0143815
707.873	0.0145250
707.951	0.0145744
708.030	0.0145490
708.108	0.0144874
708.186	0.0146088
708.264	0.0145747
708.342	0.0146027
708.420	0.0146248
708.498	0.0147430
708.576	0.0145096
708.655	0.0148163
708.733	0.0147749
708.811	0.0148111
708.889	0.0148670
708.967	0.0148437
709.045	0.0148210
709.123	0.0147724
709.201	0.0149249
709.280	0.0148579
709.358	0.0147026
709.436	0.0146474
709.514	0.0145654
709.592	0.0144444
709.670	0.0142898
709.748	0.0140833
709.826	0.0139267
709.905	0.0139304
709.983	0.0138065
710.061	0.0137305
710.139	0.0136282
710.217	0.0136283
710.295	0.0137755
710.373	0.0138383
710.451	0.0137573
710.530	0.0138103
710.608	0.0137090
710.686	0.0136893
710.764	0.0138547
710.842	0.0139252
710.920	0.0140525
710.998	0.0138631
711.076	0.0139838
711.155	0.0139280
711.233	0.0140437
711.311	0.0139742
711.389	0.0141702
711.467	0.0142023
711.545	0.0142426
711.623	0.0143422
711.701	0.0142936
711.780	0.0144727
711.858	0.0144486
711.936	0.0144768
712.014	0.0146078
712.092	0.0146833
712.170	0.0147041
712.248	0.0148599
712.326	0.0148358
712.405	0.0148833
712.483	0.0148641
712.561	0.0149622
712.639	0.0149839
712.717	0.0149762
712.795	0.0151068
712.873	0.0149580
712.951	0.0148246
713.030	0.0148309
713.108	0.0146825
713.186	0.0146921
713.264	0.0145940
713.342	0.0145475
713.420	0.0146577
713.498	0.0143446
713.576	0.0142416
713.655	0.0141483
713.733	0.0140626
713.811	0.0138934
713.889	0.0136629
713.967	0.0137617
714.045	0.0136667
714.123	0.0135279
714.201	0.0134157
714.280	0.0134784
714.358	0.0133746
714.436	0.0133054
714.514	0.0135004
714.592	0.0134998
714.670	0.0134854
714.748	0.0134084
714.826	0.0134457
714.905	0.0135711
714.983	0.0137148
715.061	0.0137552
715.139	0.0137162
715.217	0.0139341
715.295	0.0140452
715.373	0.0141378
715.451	0.0141663
715.530	0.0143907
715.608	0.0144078
715.686	0.0144814
715.764	0.0146779
715.842	0.0148176
715.920	0.0149685
715.998	0.0149471
716.076	0.0150653
716.155	0.0152029
716.233	0.0151936
716.311	0.0152332
716.389	0.0153024
716.467	0.0152550
716.545	0.0153127
716.623	0.0152754
716.701	0.0151357
716.780	0.0150101
716.858	0.0151241
716.936	0.0151148
717.014	0.0149929
717.092	0.0148412
717.170	0.0146287
717.248	0.0146613
717.326	0.0146099
717.405	0.0146184
717.483	0.0144991
717.561	0.0143329
717.639	0.0144142
717.717	0.0144991
717.795	0.0145334
717.873	0.0145391
717.951	0.0144095
718.030	0.0144721
718.108	0.0144949
718.186	0.0143633
718.264	0.0143767
718.342	0.0144151
718.420	0.0144920
718.498	0.0143864
718.576	0.0145211
718.655	0.0142957
718.733	0.0142448
718.811	0.0142193
718.889	0.0142674
718.967	0.0140598
719.045	0.0141962
719.123	0.0140742
719.201	0.0139839
719.280	0.0139682
719.358	0.0138815
719.436	0.0137949
719.514	0.0137238
719.592	0.0136498
719.670	0.0136729
719.748	0.0136515
719.826	0.0137864
719.905	0.0136471
719.983	0.0136494
720.061	0.0138009
720.139	0.0137547
720.217	0.0139234
720.295	0.0139139
720.373	0.0138350
720.451	0.0139156
720.530	0.0142258
720.608	0.0141714
720.686	0.0140551
720.764	0.0142098
720.842	0.0142809
720.920	0.0142667
720.998	0.0143356
721.076	0.0144234
721.155	0.0145245
721.233	0.0145782
721.311	0.0144859
721.389	0.0145007
721.467	0.0146326
721.545	0.0146764
721.623	0.0146478
721.701	0.0146846
721.780	0.0147162
721.858	0.0147903
721.936	0.0148528
722.014	0.0146559
722.092	0.0148953
722.170	0.0148975
722.248	0.0147621
722.326	0.0149235
722.405	0.0148614
722.483	0.0148747
722.561	0.0148106
722.639	0.0146111
722.717	0.0148488
722.795	0.0148352
722.873	0.0147604
722.951	0.0147378
723.030	0.0146496
723.108	0.0143822
723.186	0.0144841
723.264	0.0145384
723.342	0.0143407
723.420	0.0144193
723.498	0.0142320
723.576	0.0143250
723.655	0.0143761
723.733	0.0142178
723.811	0.0140845
723.889	0.0138822
723.967	0.0140726
724.045	0.0138521
724.123	0.0138303
724.201	0.0136747
724.280	0.0136507
724.358	0.0136849
724.436	0.0136793
724.514	0.0136450
724.592	0.0137398
724.670	0.0135661
724.748	0.0136890
724.826	0.0137029
724.905	0.0138858
724.983	0.0137390
725.061	0.0139469
725.139	0.0139280
725.217	0.0139670
725.295	0.0141799
725.373	0.0139926
725.451	0.0140620
725.530	0.0141360
725.608	0.0141502
725.686	0.0140929
