05/20/2022	16:47:48	Ver.	4.1	UNKNOWN
Optical Delay	639.982744	Delta X		0.078125	Sweeps	1	Scan Rate	0/0
Coordinates	Axis 1	NaN	Axis 2	NaN	Axis 3	NaN	Axis 4	NaN	Axis 5	NaN	Axis 6	0.000000
TX Power	0.000000	RX Power	0.000000

639.983	0.0144740
640.061	0.0144382
640.139	0.0144098
640.217	0.0144318
640.295	0.0144846
640.373	0.0144597
640.451	0.0144800
640.530	0.0145159
640.608	0.0144374
640.686	0.0143990
640.764	0.0143061
640.842	0.0144913
640.920	0.0143729
640.998	0.0144517
641.076	0.0144095
641.155	0.0144137
641.233	0.0145091
641.311	0.0144405
641.389	0.0143980
641.467	0.0144485
641.545	0.0143662
641.623	0.0144504
641.701	0.0144551
641.780	0.0145213
641.858	0.0145123
641.936	0.0145152
642.014	0.0145635
642.092	0.0144141
642.170	0.0145353
642.248	0.0145247
642.326	0.0144758
642.405	0.0142989
642.483	0.0144750
642.561	0.0143956
642.639	0.0144299
642.717	0.0144368
642.795	0.0143497
642.873	0.0143452
642.951	0.0143275
643.030	0.0143831
643.108	0.0143804
643.186	0.0143254
643.264	0.0144558
643.342	0.0143556
643.420	0.0143955
643.498	0.0143420
643.576	0.0143498
643.655	0.0144549
643.733	0.0144411
643.811	0.0144987
643.889	0.0142975
643.967	0.0143758
644.045	0.0144762
644.123	0.0145509
644.201	0.0143420
644.280	0.0144112
644.358	0.0143735
644.436	0.0142686
644.514	0.0142593
644.592	0.0143390
644.670	0.0143658
644.748	0.0143079
644.826	0.0142872
644.905	0.0142258
644.983	0.0143117
645.061	0.0144449
645.139	0.0143335
645.217	0.0142479
645.295	0.0144144
645.373	0.0141087
645.451	0.0142432
645.530	0.0142074
645.608	0.0141659
645.686	0.0142130
645.764	0.0144112
645.842	0.0143893
645.920	0.0141417
645.998	0.0143314
646.076	0.0142242
646.155	0.0142117
646.233	0.0141859
646.311	0.0142295
646.389	0.0142152
646.467	0.0140583
646.545	0.0140989
646.623	0.0141241
646.701	0.0142875
646.780	0.0143431
646.858	0.0142665
646.936	0.0142345
647.014	0.0142449
647.092	0.0142410
647.170	0.0141380
647.248	0.0141685
647.326	0.0142446
647.405	0.0141615
647.483	0.0140376
647.561	0.0140834
647.639	0.0140516
647.717	0.0140313
647.795	0.0140730
647.873	0.0140898
647.951	0.0140826
648.030	0.0139758
648.108	0.0140445
648.186	0.0141946
648.264	0.0140417
648.342	0.0140855
648.420	0.0140934
648.498	0.0139906
648.576	0.0141074
648.655	0.0141625
648.733	0.0140769
648.811	0.0140820
648.889	0.0141705
648.967	0.0142794
649.045	0.0141561
649.123	0.0141268
649.201	0.0140862
649.280	0.0141412
649.358	0.0141930
649.436	0.0142165
649.514	0.0141154
649.592	0.0142186
649.670	0.0141953
649.748	0.0142518
649.826	0.0142764
649.905	0.0143946
649.983	0.0143612
650.061	0.0143694
650.139	0.0143044
650.217	0.0143251
650.295	0.0143716
650.373	0.0143626
650.451	0.0144717
650.530	0.0143475
650.608	0.0142869
650.686	0.0144730
650.764	0.0143691
650.842	0.0142557
650.920	0.0143714
650.998	0.0144653
651.076	0.0143880
651.155	0.0144842
651.233	0.0143755
651.311	0.0145196
651.389	0.0143293
651.467	0.0145219
651.545	0.0144206
651.623	0.0143848
651.701	0.0145532
651.780	0.0144889
651.858	0.0142967
651.936	0.0144149
652.014	0.0144977
652.092	0.0143146
652.170	0.0144116
652.248	0.0144175
652.326	0.0143488
652.405	0.0143432
652.483	0.0144579
652.561	0.0142353
652.639	0.0143658
652.717	0.0142869
652.795	0.0142928
652.873	0.0143021
652.951	0.0141730
653.030	0.0141846
653.108	0.0142882
653.186	0.0142844
653.264	0.0141669
653.342	0.0142491
653.420	0.0143514
653.498	0.0144588
653.576	0.0143972
653.655	0.0142735
653.733	0.0144721
653.811	0.0144667
653.889	0.0144106
653.967	0.0144564
654.045	0.0145219
654.123	0.0144610
654.201	0.0145111
654.280	0.0144504
654.358	0.0145142
654.436	0.0144942
654.514	0.0144305
654.592	0.0145628
654.670	0.0145548
654.748	0.0145642
654.826	0.0145318
654.905	0.0145076
654.983	0.0144346
655.061	0.0144846
655.139	0.0145985
655.217	0.0145396
655.295	0.0146404
655.373	0.0143150
655.451	0.0144398
655.530	0.0144898
655.608	0.0146162
655.686	0.0147186
655.764	0.0146661
655.842	0.0146082
655.920	0.0147065
655.998	0.0146660
656.076	0.0147636
656.155	0.0147093
656.233	0.0147268
656.311	0.0147968
656.389	0.0148525
656.467	0.0148441
656.545	0.0148469
656.623	0.0148534
656.701	0.0148552
656.780	0.0146121
656.858	0.0146657
656.936	0.0147650
657.014	0.0146643
657.092	0.0145863
657.170	0.0144814
657.248	0.0145024
657.326	0.0144608
657.405	0.0143667
657.483	0.0143053
657.561	0.0144142
657.639	0.0144370
657.717	0.0143845
657.795	0.0141269
657.873	0.0141648
657.951	0.0143533
658.030	0.0142403
658.108	0.0141960
658.186	0.0142661
658.264	0.0143999
658.342	0.0143881
658.420	0.0142384
658.498	0.0143298
658.576	0.0144386
658.655	0.0143551
658.733	0.0143362
658.811	0.0143868
658.889	0.0143680
658.967	0.0143678
659.045	0.0143680
659.123	0.0143761
659.201	0.0143802
659.280	0.0144520
659.358	0.0143068
659.436	0.0143720
659.514	0.0143895
659.592	0.0143952
659.670	0.0143382
659.748	0.0143864
659.826	0.0144217
659.905	0.0142541
659.983	0.0142593
660.061	0.0142386
660.139	0.0143855
660.217	0.0142667
660.295	0.0141169
660.373	0.0141982
660.451	0.0143705
660.530	0.0142516
660.608	0.0144128
660.686	0.0144067
660.764	0.0142451
660.842	0.0142803
660.920	0.0144115
660.998	0.0143786
661.076	0.0144777
661.155	0.0144604
661.233	0.0144672
661.311	0.0144721
661.389	0.0145351
661.467	0.0143424
661.545	0.0145687
661.623	0.0144417
661.701	0.0143896
661.780	0.0145342
661.858	0.0145435
661.936	0.0142687
662.014	0.0144675
662.092	0.0144495
662.170	0.0144314
662.248	0.0143513
662.326	0.0143707
662.405	0.0143752
662.483	0.0143406
662.561	0.0143391
662.639	0.0144361
662.717	0.0143767
662.795	0.0144389
662.873	0.0144629
662.951	0.0145253
663.030	0.0144421
663.108	0.0146043
663.186	0.0144186
663.264	0.0143990
663.342	0.0145486
663.420	0.0145141
663.498	0.0143805
663.576	0.0144187
663.655	0.0143589
663.733	0.0142778
663.811	0.0144147
663.889	0.0143284
663.967	0.0143080
664.045	0.0142091
664.123	0.0141846
664.201	0.0141907
664.280	0.0141122
664.358	0.0141736
664.436	0.0141945
664.514	0.0142221
664.592	0.0142753
664.670	0.0142061
664.748	0.0142001
664.826	0.0142755
664.905	0.0142853
664.983	0.0141730
665.061	0.0142136
665.139	0.0143661
665.217	0.0140327
665.295	0.0140811
665.373	0.0141559
665.451	0.0140713
665.530	0.0141051
665.608	0.0141763
665.686	0.0139318
665.764	0.0140105
665.842	0.0143224
665.920	0.0141411
665.998	0.0140566
666.076	0.0142518
666.155	0.0143125
666.233	0.0142441
666.311	0.0142899
666.389	0.0142650
666.467	0.0144286
666.545	0.0145313
666.623	0.0145232
666.701	0.0144657
666.780	0.0145439
666.858	0.0147887
666.936	0.0146629
667.014	0.0146538
667.092	0.0147948
667.170	0.0148320
667.248	0.0145984
667.326	0.0147891
667.405	0.0148037
667.483	0.0146884
667.561	0.0146602
667.639	0.0147784
667.717	0.0146322
667.795	0.0145274
667.873	0.0144670
667.951	0.0146030
668.030	0.0146578
668.108	0.0144401
668.186	0.0144079
668.264	0.0142790
668.342	0.0141836
668.420	0.0141084
668.498	0.0140907
668.576	0.0140471
668.655	0.0139466
668.733	0.0139229
668.811	0.0136928
668.889	0.0136701
668.967	0.0137579
669.045	0.0136176
669.123	0.0136706
669.201	0.0137463
669.280	0.0137757
669.358	0.0136629
669.436	0.0138351
669.514	0.0138128
669.592	0.0139999
669.670	0.0140234
669.748	0.0142028
669.826	0.0143756
669.905	0.0143900
669.983	0.0143776
670.061	0.0146638
670.139	0.0146624
670.217	0.0147832
670.295	0.0148009
670.373	0.0150105
670.451	0.0149511
670.530	0.0151778
670.608	0.0150921
670.686	0.0152182
670.764	0.0152791
670.842	0.0152425
670.920	0.0153150
670.998	0.0153728
671.076	0.0153741
671.155	0.0152975
671.233	0.0152542
671.311	0.0151303
671.389	0.0151382
671.467	0.0148877
671.545	0.0148911
671.623	0.0148996
671.701	0.0146400
671.780	0.0145387
671.858	0.0144249
671.936	0.0143070
672.014	0.0142319
672.092	0.0139133
672.170	0.0136949
672.248	0.0135689
672.326	0.0134789
672.405	0.0135155
672.483	0.0134090
672.561	0.0132864
672.639	0.0132225
672.717	0.0132291
672.795	0.0132236
672.873	0.0134832
672.951	0.0135775
673.030	0.0134026
673.108	0.0135392
673.186	0.0136434
673.264	0.0139698
673.342	0.0140077
673.420	0.0140723
673.498	0.0142201
673.576	0.0143604
673.655	0.0145721
673.733	0.0148293
673.811	0.0149271
673.889	0.0149897
673.967	0.0152180
674.045	0.0153909
674.123	0.0154485
674.201	0.0155927
674.280	0.0157622
674.358	0.0159145
674.436	0.0158636
674.514	0.0158738
674.592	0.0157932
674.670	0.0157478
674.748	0.0156856
674.826	0.0157404
674.905	0.0155502
674.983	0.0155719
675.061	0.0154779
675.139	0.0152547
675.217	0.0150397
675.295	0.0150617
675.373	0.0149145
675.451	0.0146046
675.530	0.0144788
675.608	0.0143700
675.686	0.0142112
675.764	0.0140147
675.842	0.0139986
675.920	0.0138812
675.998	0.0137285
676.076	0.0136143
676.155	0.0134907
676.233	0.0135239
676.311	0.0134938
676.389	0.0135069
676.467	0.0134875
676.545	0.0134660
676.623	0.0136056
676.701	0.0137354
676.780	0.0139036
676.858	0.0139686
676.936	0.0139456
677.014	0.0140868
677.092	0.0141833
677.170	0.0143708
677.248	0.0144601
677.326	0.0145246
677.405	0.0146539
677.483	0.0148177
677.561	0.0149945
677.639	0.0149890
677.717	0.0150705
677.795	0.0151857
677.873	0.0151874
677.951	0.0152298
678.030	0.0151779
678.108	0.0154380
678.186	0.0152857
678.264	0.0152785
678.342	0.0154928
678.420	0.0152805
678.498	0.0153572
678.576	0.0152850
678.655	0.0152374
678.733	0.0150526
678.811	0.0149319
678.889	0.0151126
678.967	0.0149615
679.045	0.0148454
679.123	0.0148156
679.201	0.0147406
679.280	0.0147735
679.358	0.0146426
679.436	0.0146798
679.514	0.0146400
679.592	0.0146857
679.670	0.0144540
679.748	0.0144748
679.826	0.0145083
679.905	0.0144138
679.983	0.0143726
680.061	0.0142593
680.139	0.0141602
680.217	0.0141505
680.295	0.0141151
680.373	0.0139591
680.451	0.0138251
680.530	0.0137231
680.608	0.0137416
680.686	0.0136356
680.764	0.0135923
680.842	0.0134734
680.920	0.0136034
680.998	0.0133877
681.076	0.0134008
681.155	0.0135464
681.233	0.0134841
681.311	0.0133883
681.389	0.0133717
681.467	0.0134727
681.545	0.0135483
681.623	0.0134718
681.701	0.0137321
681.780	0.0137264
681.858	0.0137031
681.936	0.0139060
682.014	0.0141614
682.092	0.0143447
682.170	0.0144598
682.248	0.0145648
682.326	0.0145980
682.405	0.0148934
682.483	0.0150021
682.561	0.0150026
682.639	0.0150751
682.717	0.0151241
682.795	0.0152245
682.873	0.0152267
682.951	0.0152353
683.030	0.0154256
683.108	0.0154070
683.186	0.0153684
683.264	0.0154047
683.342	0.0154244
683.420	0.0153679
683.498	0.0152487
683.576	0.0152500
683.655	0.0151512
683.733	0.0150776
683.811	0.0149651
683.889	0.0148810
683.967	0.0146665
684.045	0.0146176
684.123	0.0144819
684.201	0.0142983
684.280	0.0142507
684.358	0.0142414
684.436	0.0140649
684.514	0.0140724
684.592	0.0141787
684.670	0.0140141
684.748	0.0140438
684.826	0.0140143
684.905	0.0138975
684.983	0.0140523
685.061	0.0140238
685.139	0.0140475
685.217	0.0138393
685.295	0.0140028
685.373	0.0139659
685.451	0.0140339
685.530	0.0140700
685.608	0.0140846
685.686	0.0140462
685.764	0.0141813
685.842	0.0142121
685.920	0.0142629
685.998	0.0142052
686.076	0.0142194
686.155	0.0142690
686.233	0.0140384
686.311	0.0142887
686.389	0.0141164
686.467	0.0141811
686.545	0.0139558
686.623	0.0141320
686.701	0.0141486
686.780	0.0139996
686.858	0.0141320
686.936	0.0142194
687.014	0.0141914
687.092	0.0141906
687.170	0.0142175
687.248	0.0143790
687.326	0.0144746
687.405	0.0147086
687.483	0.0147526
687.561	0.0148087
687.639	0.0149828
687.717	0.0151117
687.795	0.0151628
687.873	0.0153012
687.951	0.0153156
688.030	0.0153786
688.108	0.0153222
688.186	0.0153362
688.264	0.0154379
688.342	0.0156075
688.420	0.0154839
688.498	0.0153639
688.576	0.0151711
688.655	0.0149498
688.733	0.0149033
688.811	0.0147726
688.889	0.0146818
688.967	0.0144607
689.045	0.0143849
689.123	0.0140144
689.201	0.0139809
689.280	0.0137440
689.358	0.0136694
689.436	0.0135532
689.514	0.0134396
689.592	0.0133759
689.670	0.0132574
689.748	0.0132697
689.826	0.0131177
689.905	0.0132647
689.983	0.0131911
690.061	0.0131905
690.139	0.0133996
690.217	0.0133849
690.295	0.0134845
690.373	0.0134996
690.451	0.0136504
690.530	0.0140481
690.608	0.0142690
690.686	0.0143795
690.764	0.0147529
690.842	0.0149290
690.920	0.0150764
690.998	0.0153677
691.076	0.0154070
691.155	0.0155315
691.233	0.0157947
691.311	0.0156400
691.389	0.0158051
691.467	0.0158375
691.545	0.0158655
691.623	0.0158845
691.701	0.0157972
691.780	0.0155312
691.858	0.0154600
691.936	0.0153100
692.014	0.0152694
692.092	0.0150598
692.170	0.0148483
692.248	0.0145900
692.326	0.0143475
692.405	0.0140969
692.483	0.0141030
692.561	0.0138247
692.639	0.0136755
692.717	0.0134956
692.795	0.0133074
692.873	0.0133026
692.951	0.0131939
693.030	0.0131693
693.108	0.0132140
693.186	0.0131843
693.264	0.0132219
693.342	0.0132610
693.420	0.0132906
693.498	0.0134068
693.576	0.0133666
693.655	0.0134548
693.733	0.0135533
693.811	0.0137483
693.889	0.0139749
693.967	0.0141368
694.045	0.0141949
694.123	0.0142768
694.201	0.0145553
694.280	0.0147714
694.358	0.0147781
694.436	0.0148236
694.514	0.0149554
694.592	0.0149304
694.670	0.0149986
694.748	0.0151385
694.826	0.0148987
694.905	0.0147855
694.983	0.0148109
695.061	0.0149621
695.139	0.0148711
695.217	0.0148327
695.295	0.0146423
695.373	0.0146394
695.451	0.0145928
695.530	0.0146635
695.608	0.0146729
695.686	0.0145442
695.764	0.0145467
695.842	0.0145927
695.920	0.0147616
695.998	0.0145908
696.076	0.0146264
696.155	0.0145652
696.233	0.0145143
696.311	0.0144666
696.389	0.0146156
696.467	0.0145702
696.545	0.0146924
696.623	0.0146435
696.701	0.0146384
696.780	0.0145753
696.858	0.0147303
696.936	0.0147053
697.014	0.0147201
697.092	0.0145044
697.170	0.0145200
697.248	0.0145415
697.326	0.0145139
697.405	0.0142758
697.483	0.0142059
697.561	0.0141112
697.639	0.0139305
697.717	0.0138075
697.795	0.0139435
697.873	0.0138805
697.951	0.0137041
698.030	0.0137587
698.108	0.0139342
698.186	0.0138312
698.264	0.0137133
698.342	0.0136618
698.420	0.0136211
698.498	0.0137527
698.576	0.0138035
698.655	0.0138045
698.733	0.0138141
698.811	0.0139633
698.889	0.0139689
698.967	0.0142878
699.045	0.0142966
699.123	0.0145110
699.201	0.0145634
699.280	0.0147559
699.358	0.0148635
699.436	0.0148371
699.514	0.0149720
699.592	0.0151818
699.670	0.0151037
699.748	0.0151428
699.826	0.0153033
699.905	0.0152572
699.983	0.0153436
700.061	0.0156566
700.139	0.0154206
700.217	0.0155457
700.295	0.0154796
700.373	0.0155399
700.451	0.0154555
700.530	0.0152645
700.608	0.0152493
700.686	0.0149831
700.764	0.0148903
700.842	0.0148736
700.920	0.0146864
700.998	0.0143303
701.076	0.0142621
701.155	0.0140466
701.233	0.0137664
701.311	0.0136115
701.389	0.0134783
701.467	0.0132118
701.545	0.0132191
701.623	0.0131152
701.701	0.0127874
701.780	0.0127543
701.858	0.0128199
701.936	0.0127174
702.014	0.0128526
702.092	0.0128208
702.170	0.0127571
702.248	0.0128084
702.326	0.0128898
702.405	0.0128514
702.483	0.0130059
702.561	0.0132967
702.639	0.0134894
702.717	0.0136747
702.795	0.0140142
702.873	0.0140532
702.951	0.0143793
703.030	0.0146043
703.108	0.0148760
703.186	0.0150391
703.264	0.0153319
703.342	0.0155197
703.420	0.0156016
703.498	0.0157793
703.576	0.0159077
703.655	0.0160822
703.733	0.0162804
703.811	0.0162112
703.889	0.0162519
703.967	0.0161961
704.045	0.0161753
704.123	0.0162540
704.201	0.0159393
704.280	0.0159982
704.358	0.0157544
704.436	0.0154488
704.514	0.0152967
704.592	0.0153981
704.670	0.0151509
704.748	0.0149022
704.826	0.0145964
704.905	0.0144173
704.983	0.0142401
705.061	0.0140013
705.139	0.0137577
705.217	0.0136759
705.295	0.0136087
705.373	0.0133775
705.451	0.0132380
705.530	0.0132467
705.608	0.0132130
705.686	0.0131652
705.764	0.0132186
705.842	0.0131231
705.920	0.0131686
705.998	0.0132642
706.076	0.0131717
706.155	0.0132121
706.233	0.0133229
706.311	0.0132059
706.389	0.0132551
706.467	0.0134034
706.545	0.0133156
706.623	0.0133778
706.701	0.0136714
706.780	0.0138265
706.858	0.0137360
706.936	0.0139390
707.014	0.0140962
707.092	0.0140333
707.170	0.0143129
707.248	0.0144010
707.326	0.0144852
707.405	0.0146613
707.483	0.0146828
707.561	0.0146946
707.639	0.0147485
707.717	0.0149294
707.795	0.0150426
707.873	0.0149712
707.951	0.0150294
708.030	0.0150734
708.108	0.0151227
708.186	0.0151284
708.264	0.0150730
708.342	0.0149856
708.420	0.0152711
708.498	0.0151488
708.576	0.0152159
708.655	0.0152862
708.733	0.0154880
708.811	0.0153223
708.889	0.0153310
708.967	0.0152640
709.045	0.0150805
709.123	0.0150505
709.201	0.0150770
709.280	0.0149609
709.358	0.0148600
709.436	0.0147414
709.514	0.0144850
709.592	0.0143631
709.670	0.0144655
709.748	0.0143301
709.826	0.0140051
709.905	0.0140465
709.983	0.0140845
710.061	0.0140380
710.139	0.0139893
710.217	0.0140198
710.295	0.0139973
710.373	0.0141248
710.451	0.0139597
710.530	0.0139809
710.608	0.0141475
710.686	0.0140748
710.764	0.0139510
710.842	0.0139551
710.920	0.0142112
710.998	0.0141582
711.076	0.0141595
711.155	0.0141679
711.233	0.0141703
711.311	0.0142867
711.389	0.0144774
711.467	0.0144088
711.545	0.0145570
711.623	0.0145013
711.701	0.0146218
711.780	0.0148338
711.858	0.0146799
711.936	0.0146854
712.014	0.0149937
712.092	0.0148941
712.170	0.0147968
712.248	0.0147357
712.326	0.0148121
712.405	0.0148268
712.483	0.0148669
712.561	0.0149001
712.639	0.0148271
712.717	0.0146400
712.795	0.0148296
712.873	0.0148143
712.951	0.0147993
713.030	0.0146999
713.108	0.0145910
713.186	0.0145913
713.264	0.0145644
713.342	0.0143995
713.420	0.0144607
713.498	0.0142229
713.576	0.0143053
713.655	0.0142682
713.733	0.0140999
713.811	0.0140394
713.889	0.0139400
713.967	0.0138786
714.045	0.0137102
714.123	0.0136855
714.201	0.0136852
714.280	0.0135984
714.358	0.0135594
714.436	0.0134139
714.514	0.0135281
714.592	0.0137101
714.670	0.0135352
714.748	0.0136563
714.826	0.0137133
714.905	0.0137711
714.983	0.0138905
715.061	0.0138813
715.139	0.0142452
715.217	0.0142929
715.295	0.0143563
715.373	0.0145378
715.451	0.0144520
715.530	0.0145658
715.608	0.0147227
715.686	0.0147878
715.764	0.0148149
715.842	0.0146688
715.920	0.0150313
715.998	0.0149570
716.076	0.0150453
716.155	0.0150755
716.233	0.0150148
716.311	0.0150618
716.389	0.0151278
716.467	0.0151841
716.545	0.0151372
716.623	0.0148923
716.701	0.0151086
716.780	0.0150557
716.858	0.0151383
716.936	0.0150587
717.014	0.0149871
717.092	0.0148627
717.170	0.0149496
717.248	0.0148437
717.326	0.0146546
717.405	0.0146846
717.483	0.0147537
717.561	0.0146984
717.639	0.0146593
717.717	0.0147643
717.795	0.0147330
717.873	0.0145040
717.951	0.0146824
718.030	0.0147987
718.108	0.0147730
718.186	0.0147163
718.264	0.0145590
718.342	0.0145541
718.420	0.0145663
718.498	0.0144224
718.576	0.0142899
718.655	0.0142072
718.733	0.0140305
718.811	0.0140450
718.889	0.0139483
718.967	0.0136956
719.045	0.0136913
719.123	0.0136769
719.201	0.0135995
719.280	0.0135612
719.358	0.0135809
719.436	0.0135319
719.514	0.0134534
719.592	0.0133773
719.670	0.0134479
719.748	0.0135833
719.826	0.0136366
719.905	0.0135488
719.983	0.0136092
720.061	0.0136659
720.139	0.0136242
720.217	0.0138451
720.295	0.0138653
720.373	0.0138219
720.451	0.0139413
720.530	0.0139553
720.608	0.0139982
720.686	0.0141538
720.764	0.0141101
720.842	0.0141933
720.920	0.0141309
720.998	0.0143459
721.076	0.0143075
721.155	0.0142577
721.233	0.0142785
721.311	0.0143587
721.389	0.0143681
721.467	0.0144735
721.545	0.0145645
721.623	0.0145921
721.701	0.0146207
721.780	0.0146427
721.858	0.0146312
721.936	0.0146622
722.014	0.0147287
722.092	0.0148009
722.170	0.0148090
722.248	0.0149142
722.326	0.0148537
722.405	0.0149515
722.483	0.0148662
722.561	0.0148534
722.639	0.0149676
722.717	0.0148350
722.795	0.0147189
722.873	0.0147697
722.951	0.0146635
723.030	0.0145186
723.108	0.0146062
723.186	0.0144715
723.264	0.0144205
723.342	0.0142556
723.420	0.0142792
723.498	0.0143409
723.576	0.0142696
723.655	0.0141331
723.733	0.0140716
723.811	0.0140605
723.889	0.0140810
723.967	0.0137730
724.045	0.0139143
724.123	0.0137669
724.201	0.0137843
724.280	0.0136464
724.358	0.0135850
724.436	0.0135973
724.514	0.0135959
724.592	0.0134547
724.670	0.0133879
724.748	0.0134583
724.826	0.0136029
724.905	0.0138132
724.983	0.0136942
725.061	0.0136068
725.139	0.0138161
725.217	0.0140025
725.295	0.0139897
725.373	0.0140597
725.451	0.0140411
725.530	0.0139269
725.608	0.0140818
725.686	0.0141856
