05/20/2022	16:48:18	Ver.	4.1	UNKNOWN
Optical Delay	639.982744	Delta X		0.078125	Sweeps	1	Scan Rate	0/0
Coordinates	Axis 1	NaN	Axis 2	NaN	Axis 3	NaN	Axis 4	NaN	Axis 5	NaN	Axis 6	0.000000
TX Power	0.000000	RX Power	0.000000

639.983	0.0148468
640.061	0.0149113
640.139	0.0148804
640.217	0.0147744
640.295	0.0147376
640.373	0.0148347
640.451	0.0148627
640.530	0.0148895
640.608	0.0147354
640.686	0.0148139
640.764	0.0148888
640.842	0.0148579
640.920	0.0147668
640.998	0.0147048
641.076	0.0148027
641.155	0.0149043
641.233	0.0148474
641.311	0.0147532
641.389	0.0147247
641.467	0.0148135
641.545	0.0146618
641.623	0.0147358
641.701	0.0146471
641.780	0.0148582
641.858	0.0147898
641.936	0.0146262
642.014	0.0147908
642.092	0.0146520
642.170	0.0147425
642.248	0.0147729
642.326	0.0148432
642.405	0.0146859
642.483	0.0146013
642.561	0.0145716
642.639	0.0148546
642.717	0.0147070
642.795	0.0145963
642.873	0.0145511
642.951	0.0145663
643.030	0.0146513
643.108	0.0146322
643.186	0.0146091
643.264	0.0145840
643.342	0.0147592
643.420	0.0146948
643.498	0.0146159
643.576	0.0146722
643.655	0.0146646
643.733	0.0145573
643.811	0.0146265
643.889	0.0145847
643.967	0.0146404
644.045	0.0146960
644.123	0.0145715
644.201	0.0145650
644.280	0.0145698
644.358	0.0145592
644.436	0.0145594
644.514	0.0145996
644.592	0.0147321
644.670	0.0145758
644.748	0.0145495
644.826	0.0145895
644.905	0.0145927
644.983	0.0145642
645.061	0.0145937
645.139	0.0145110
645.217	0.0145200
645.295	0.0145100
645.373	0.0146194
645.451	0.0146621
645.530	0.0145136
645.608	0.0145408
645.686	0.0146671
645.764	0.0146152
645.842	0.0145992
645.920	0.0146161
645.998	0.0145422
646.076	0.0146320
646.155	0.0146891
646.233	0.0146022
646.311	0.0147551
646.389	0.0148548
646.467	0.0147230
646.545	0.0146013
646.623	0.0146703
646.701	0.0148798
646.780	0.0148390
646.858	0.0147742
646.936	0.0148783
647.014	0.0147794
647.092	0.0148622
647.170	0.0147099
647.248	0.0148782
647.326	0.0148237
647.405	0.0149958
647.483	0.0149243
647.561	0.0149474
647.639	0.0148804
647.717	0.0148100
647.795	0.0148899
647.873	0.0147356
647.951	0.0147663
648.030	0.0147831
648.108	0.0147717
648.186	0.0147926
648.264	0.0149356
648.342	0.0148284
648.420	0.0147453
648.498	0.0148352
648.576	0.0146727
648.655	0.0147873
648.733	0.0147584
648.811	0.0148551
648.889	0.0146706
648.967	0.0145376
649.045	0.0145981
649.123	0.0146784
649.201	0.0147813
649.280	0.0147126
649.358	0.0146675
649.436	0.0147156
649.514	0.0147477
649.592	0.0147987
649.670	0.0147070
649.748	0.0147596
649.826	0.0146860
649.905	0.0147437
649.983	0.0146717
650.061	0.0148650
650.139	0.0147997
650.217	0.0147243
650.295	0.0148022
650.373	0.0147100
650.451	0.0148045
650.530	0.0149067
650.608	0.0148640
650.686	0.0149393
650.764	0.0149489
650.842	0.0150567
650.920	0.0151004
650.998	0.0149980
651.076	0.0150684
651.155	0.0150124
651.233	0.0150250
651.311	0.0149097
651.389	0.0150812
651.467	0.0151307
651.545	0.0150244
651.623	0.0149710
651.701	0.0150049
651.780	0.0150754
651.858	0.0148798
651.936	0.0150069
652.014	0.0149191
652.092	0.0150317
652.170	0.0150737
652.248	0.0151325
652.326	0.0152344
652.405	0.0151011
652.483	0.0150906
652.561	0.0150945
652.639	0.0151663
652.717	0.0151201
652.795	0.0151140
652.873	0.0151306
652.951	0.0152393
653.030	0.0151597
653.108	0.0152428
653.186	0.0150201
653.264	0.0151154
653.342	0.0150481
653.420	0.0150188
653.498	0.0149800
653.576	0.0149060
653.655	0.0147605
653.733	0.0148013
653.811	0.0148700
653.889	0.0148197
653.967	0.0148119
654.045	0.0147254
654.123	0.0147210
654.201	0.0147977
654.280	0.0147552
654.358	0.0146568
654.436	0.0147160
654.514	0.0147390
654.592	0.0147229
654.670	0.0147118
654.748	0.0146080
654.826	0.0147015
654.905	0.0147631
654.983	0.0147446
655.061	0.0147237
655.139	0.0147171
655.217	0.0147247
655.295	0.0147700
655.373	0.0147939
655.451	0.0145930
655.530	0.0146970
655.608	0.0146651
655.686	0.0145685
655.764	0.0147347
655.842	0.0147805
655.920	0.0146787
655.998	0.0146307
656.076	0.0146502
656.155	0.0146197
656.233	0.0146947
656.311	0.0147536
656.389	0.0146138
656.467	0.0146594
656.545	0.0146382
656.623	0.0147131
656.701	0.0147024
656.780	0.0146535
656.858	0.0146188
656.936	0.0147428
657.014	0.0146137
657.092	0.0147117
657.170	0.0147558
657.248	0.0146330
657.326	0.0147118
657.405	0.0146024
657.483	0.0147399
657.561	0.0146313
657.639	0.0147311
657.717	0.0148363
657.795	0.0147821
657.873	0.0147581
657.951	0.0147742
658.030	0.0149316
658.108	0.0148296
658.186	0.0150997
658.264	0.0149014
658.342	0.0148889
658.420	0.0148174
658.498	0.0148973
658.576	0.0148444
658.655	0.0147943
658.733	0.0148498
658.811	0.0148526
658.889	0.0148444
658.967	0.0148820
659.045	0.0148239
659.123	0.0149423
659.201	0.0147638
659.280	0.0146741
659.358	0.0147881
659.436	0.0148698
659.514	0.0147688
659.592	0.0147182
659.670	0.0147039
659.748	0.0147359
659.826	0.0148476
659.905	0.0147548
659.983	0.0145493
660.061	0.0145036
660.139	0.0147002
660.217	0.0145545
660.295	0.0146515
660.373	0.0146894
660.451	0.0146718
660.530	0.0146373
660.608	0.0146992
660.686	0.0145412
660.764	0.0146405
660.842	0.0147094
660.920	0.0147043
660.998	0.0145387
661.076	0.0147375
661.155	0.0147250
661.233	0.0146451
661.311	0.0146764
661.389	0.0146521
661.467	0.0146145
661.545	0.0146216
661.623	0.0145647
661.701	0.0145338
661.780	0.0146144
661.858	0.0147805
661.936	0.0147527
662.014	0.0146668
662.092	0.0146126
662.170	0.0147607
662.248	0.0147666
662.326	0.0147433
662.405	0.0147707
662.483	0.0148709
662.561	0.0147943
662.639	0.0147943
662.717	0.0149428
662.795	0.0149358
662.873	0.0148227
662.951	0.0148470
663.030	0.0148060
663.108	0.0148121
663.186	0.0147984
663.264	0.0146823
663.342	0.0147079
663.420	0.0148615
663.498	0.0146719
663.576	0.0145172
663.655	0.0146774
663.733	0.0145718
663.811	0.0146464
663.889	0.0146209
663.967	0.0146796
664.045	0.0146510
664.123	0.0145705
664.201	0.0146181
664.280	0.0146360
664.358	0.0145839
664.436	0.0146712
664.514	0.0146754
664.592	0.0145474
664.670	0.0145287
664.748	0.0145489
664.826	0.0143955
664.905	0.0145718
664.983	0.0145860
665.061	0.0145673
665.139	0.0145425
665.217	0.0145482
665.295	0.0145885
665.373	0.0146360
665.451	0.0147939
665.530	0.0147379
665.608	0.0147363
665.686	0.0148065
665.764	0.0149313
665.842	0.0148745
665.920	0.0148938
665.998	0.0149746
666.076	0.0150604
666.155	0.0150674
666.233	0.0149623
666.311	0.0149850
666.389	0.0152006
666.467	0.0151318
666.545	0.0151516
666.623	0.0151398
666.701	0.0149584
666.780	0.0150570
666.858	0.0151341
666.936	0.0151048
667.014	0.0150048
667.092	0.0150539
667.170	0.0149569
667.248	0.0151206
667.326	0.0150757
667.405	0.0149261
667.483	0.0149562
667.561	0.0148991
667.639	0.0147907
667.717	0.0146523
667.795	0.0146722
667.873	0.0147205
667.951	0.0146171
668.030	0.0142818
668.108	0.0142719
668.186	0.0142599
668.264	0.0143050
668.342	0.0142470
668.420	0.0141061
668.498	0.0140480
668.576	0.0141964
668.655	0.0141997
668.733	0.0141599
668.811	0.0141739
668.889	0.0143061
668.967	0.0144747
669.045	0.0143234
669.123	0.0143886
669.201	0.0145409
669.280	0.0147316
669.358	0.0148169
669.436	0.0148174
669.514	0.0147259
669.592	0.0150040
669.670	0.0151001
669.748	0.0152993
669.826	0.0154829
669.905	0.0155329
669.983	0.0155231
670.061	0.0155171
670.139	0.0155673
670.217	0.0156396
670.295	0.0155714
670.373	0.0157930
670.451	0.0159037
670.530	0.0158527
670.608	0.0157837
670.686	0.0158310
670.764	0.0157351
670.842	0.0155863
670.920	0.0154613
670.998	0.0153978
671.076	0.0153418
671.155	0.0152364
671.233	0.0150250
671.311	0.0148280
671.389	0.0147125
671.467	0.0147030
671.545	0.0143835
671.623	0.0143420
671.701	0.0142657
671.780	0.0140269
671.858	0.0140189
671.936	0.0139602
672.014	0.0139265
672.092	0.0138314
672.170	0.0137998
672.248	0.0137056
672.326	0.0139831
672.405	0.0139762
672.483	0.0140843
672.561	0.0142439
672.639	0.0142820
672.717	0.0144057
672.795	0.0144659
672.873	0.0146226
672.951	0.0146732
673.030	0.0149302
673.108	0.0151158
673.186	0.0153583
673.264	0.0152834
673.342	0.0154434
673.420	0.0157481
673.498	0.0158647
673.576	0.0160072
673.655	0.0161770
673.733	0.0162106
673.811	0.0163187
673.889	0.0165145
673.967	0.0162349
674.045	0.0163544
674.123	0.0162604
674.201	0.0164274
674.280	0.0163617
674.358	0.0162196
674.436	0.0160687
674.514	0.0158891
674.592	0.0158956
674.670	0.0157162
674.748	0.0155651
674.826	0.0153514
674.905	0.0151873
674.983	0.0150378
675.061	0.0147766
675.139	0.0145982
675.217	0.0145086
675.295	0.0143956
675.373	0.0141647
675.451	0.0140800
675.530	0.0140353
675.608	0.0138210
675.686	0.0137493
675.764	0.0137453
675.842	0.0136048
675.920	0.0135484
675.998	0.0135327
676.076	0.0137164
676.155	0.0136156
676.233	0.0136962
676.311	0.0138734
676.389	0.0138253
676.467	0.0138439
676.545	0.0140501
676.623	0.0141270
676.701	0.0143684
676.780	0.0143991
676.858	0.0146254
676.936	0.0147366
677.014	0.0147593
677.092	0.0148051
677.170	0.0149528
677.248	0.0150558
677.326	0.0151077
677.405	0.0152002
677.483	0.0151179
677.561	0.0152573
677.639	0.0152204
677.717	0.0153137
677.795	0.0154479
677.873	0.0154091
677.951	0.0154464
678.030	0.0153957
678.108	0.0153146
678.186	0.0152447
678.264	0.0152926
678.342	0.0153043
678.420	0.0150769
678.498	0.0150620
678.576	0.0150829
678.655	0.0150248
678.733	0.0150109
678.811	0.0150087
678.889	0.0149034
678.967	0.0148445
679.045	0.0148389
679.123	0.0146036
679.201	0.0147800
679.280	0.0146609
679.358	0.0147307
679.436	0.0146525
679.514	0.0146086
679.592	0.0144549
679.670	0.0144975
679.748	0.0145720
679.826	0.0143587
679.905	0.0144293
679.983	0.0144508
680.061	0.0144351
680.139	0.0144334
680.217	0.0144022
680.295	0.0144409
680.373	0.0143465
680.451	0.0143417
680.530	0.0142814
680.608	0.0142986
680.686	0.0144669
680.764	0.0145008
680.842	0.0144269
680.920	0.0143414
680.998	0.0144949
681.076	0.0144754
681.155	0.0144205
681.233	0.0144180
681.311	0.0144360
681.389	0.0145179
681.467	0.0147980
681.545	0.0147967
681.623	0.0149426
681.701	0.0149878
681.780	0.0150875
681.858	0.0153134
681.936	0.0149894
682.014	0.0152625
682.092	0.0153778
682.170	0.0155740
682.248	0.0155733
682.326	0.0155055
682.405	0.0156364
682.483	0.0156595
682.561	0.0155737
682.639	0.0155721
682.717	0.0156937
682.795	0.0154959
682.873	0.0156528
682.951	0.0154051
683.030	0.0154758
683.108	0.0154156
683.186	0.0153192
683.264	0.0153437
683.342	0.0150790
683.420	0.0150244
683.498	0.0148129
683.576	0.0146023
683.655	0.0145367
683.733	0.0144327
683.811	0.0144723
683.889	0.0142970
683.967	0.0143082
684.045	0.0143330
684.123	0.0142100
684.201	0.0142416
684.280	0.0143704
684.358	0.0143188
684.436	0.0143890
684.514	0.0143887
684.592	0.0144289
684.670	0.0144642
684.748	0.0144495
684.826	0.0145764
684.905	0.0145749
684.983	0.0145806
685.061	0.0145854
685.139	0.0145460
685.217	0.0146073
685.295	0.0147035
685.373	0.0147650
685.451	0.0148956
685.530	0.0147346
685.608	0.0147649
685.686	0.0148759
685.764	0.0148377
685.842	0.0149445
685.920	0.0149516
685.998	0.0148971
686.076	0.0149384
686.155	0.0148734
686.233	0.0147649
686.311	0.0147711
686.389	0.0147367
686.467	0.0145458
686.545	0.0146909
686.623	0.0146281
686.701	0.0146355
686.780	0.0148335
686.858	0.0147687
686.936	0.0149040
687.014	0.0149677
687.092	0.0150501
687.170	0.0152621
687.248	0.0153951
687.326	0.0153179
687.405	0.0154012
687.483	0.0156210
687.561	0.0156984
687.639	0.0157079
687.717	0.0157201
687.795	0.0158036
687.873	0.0157111
687.951	0.0156387
688.030	0.0156867
688.108	0.0155025
688.186	0.0156833
688.264	0.0152990
688.342	0.0153053
688.420	0.0151580
688.498	0.0150307
688.576	0.0147530
688.655	0.0144397
688.733	0.0144361
688.811	0.0142404
688.889	0.0140051
688.967	0.0138706
689.045	0.0136835
689.123	0.0135904
689.201	0.0137749
689.280	0.0134912
689.358	0.0134231
689.436	0.0135796
689.514	0.0135330
689.592	0.0135921
689.670	0.0133392
689.748	0.0134083
689.826	0.0134267
689.905	0.0136784
689.983	0.0137914
690.061	0.0140615
690.139	0.0141171
690.217	0.0144038
690.295	0.0145747
690.373	0.0148038
690.451	0.0152167
690.530	0.0154214
690.608	0.0156602
690.686	0.0158437
690.764	0.0161304
690.842	0.0161455
690.920	0.0162562
690.998	0.0163671
691.076	0.0163390
691.155	0.0163586
691.233	0.0162914
691.311	0.0162525
691.389	0.0161419
691.467	0.0159973
691.545	0.0159267
691.623	0.0157432
691.701	0.0155318
691.780	0.0155172
691.858	0.0153346
691.936	0.0149895
692.014	0.0148774
692.092	0.0147456
692.170	0.0145187
692.248	0.0142878
692.326	0.0142274
692.405	0.0141237
692.483	0.0138971
692.561	0.0137207
692.639	0.0138026
692.717	0.0137320
692.795	0.0136784
692.873	0.0136176
692.951	0.0137186
693.030	0.0135582
693.108	0.0138479
693.186	0.0140280
693.264	0.0140337
693.342	0.0141953
693.420	0.0142722
693.498	0.0143252
693.576	0.0146040
693.655	0.0148602
693.733	0.0149592
693.811	0.0150512
693.889	0.0151476
693.967	0.0151693
694.045	0.0152367
694.123	0.0154369
694.201	0.0153597
694.280	0.0154587
694.358	0.0153892
694.436	0.0154320
694.514	0.0154863
694.592	0.0153834
694.670	0.0154687
694.748	0.0152708
694.826	0.0152935
694.905	0.0153156
694.983	0.0151556
695.061	0.0152818
695.139	0.0151578
695.217	0.0150842
695.295	0.0149849
695.373	0.0149660
695.451	0.0148820
695.530	0.0148579
695.608	0.0148322
695.686	0.0148731
695.764	0.0147554
695.842	0.0149403
695.920	0.0147983
695.998	0.0148082
696.076	0.0148479
696.155	0.0147700
696.233	0.0148218
696.311	0.0148423
696.389	0.0149870
696.467	0.0148278
696.545	0.0148481
696.623	0.0148920
696.701	0.0150703
696.780	0.0148031
696.858	0.0146765
696.936	0.0145631
697.014	0.0145886
697.092	0.0145773
697.170	0.0146689
697.248	0.0146191
697.326	0.0144162
697.405	0.0143385
697.483	0.0142702
697.561	0.0143231
697.639	0.0142482
697.717	0.0143260
697.795	0.0141870
697.873	0.0141241
697.951	0.0141071
698.030	0.0140614
698.108	0.0141688
698.186	0.0141876
698.264	0.0142027
698.342	0.0142435
698.420	0.0143074
698.498	0.0144497
698.576	0.0144762
698.655	0.0145295
698.733	0.0147543
698.811	0.0149223
698.889	0.0149714
698.967	0.0150751
699.045	0.0152241
699.123	0.0152492
699.201	0.0153316
699.280	0.0153934
699.358	0.0155172
699.436	0.0155860
699.514	0.0158459
699.592	0.0157004
699.670	0.0159195
699.748	0.0157580
699.826	0.0158362
699.905	0.0158851
699.983	0.0159033
700.061	0.0159705
700.139	0.0158624
700.217	0.0157598
700.295	0.0155011
700.373	0.0153240
700.451	0.0154034
700.530	0.0151740
700.608	0.0150113
700.686	0.0149390
700.764	0.0145712
700.842	0.0143242
700.920	0.0141602
700.998	0.0142215
701.076	0.0139587
701.155	0.0138468
701.233	0.0135968
701.311	0.0135617
701.389	0.0135345
701.467	0.0134200
701.545	0.0134197
701.623	0.0133183
701.701	0.0132322
701.780	0.0132845
701.858	0.0132458
701.936	0.0132914
702.014	0.0134188
702.092	0.0134822
702.170	0.0134719
702.248	0.0136617
702.326	0.0137895
702.405	0.0140689
702.483	0.0141885
702.561	0.0143275
702.639	0.0147066
702.717	0.0148592
702.795	0.0149941
702.873	0.0153043
702.951	0.0156300
703.030	0.0156745
703.108	0.0158842
703.186	0.0161534
703.264	0.0162689
703.342	0.0163892
703.420	0.0164539
703.498	0.0165346
703.576	0.0165858
703.655	0.0166467
703.733	0.0167937
703.811	0.0167159
703.889	0.0167491
703.967	0.0167163
704.045	0.0165637
704.123	0.0164711
704.201	0.0164549
704.280	0.0160952
704.358	0.0160625
704.436	0.0159638
704.514	0.0155884
704.592	0.0153241
704.670	0.0151169
704.748	0.0149590
704.826	0.0147272
704.905	0.0145066
704.983	0.0143433
705.061	0.0143032
705.139	0.0140370
705.217	0.0139088
705.295	0.0137475
705.373	0.0138608
705.451	0.0137888
705.530	0.0138276
705.608	0.0135914
705.686	0.0135369
705.764	0.0136850
705.842	0.0137686
705.920	0.0136224
705.998	0.0136520
706.076	0.0138181
706.155	0.0137804
706.233	0.0139331
706.311	0.0138469
706.389	0.0141477
706.467	0.0141441
706.545	0.0142434
706.623	0.0143120
706.701	0.0144615
706.780	0.0143941
706.858	0.0145595
706.936	0.0146698
707.014	0.0147913
707.092	0.0150046
707.170	0.0150851
707.248	0.0151136
707.326	0.0152074
707.405	0.0152691
707.483	0.0152715
707.561	0.0153342
707.639	0.0153066
707.717	0.0153760
707.795	0.0153909
707.873	0.0155494
707.951	0.0156783
708.030	0.0156921
708.108	0.0157970
708.186	0.0159158
708.264	0.0158902
708.342	0.0158498
708.420	0.0158811
708.498	0.0159740
708.576	0.0160471
708.655	0.0159595
708.733	0.0157433
708.811	0.0158373
708.889	0.0156727
708.967	0.0156323
709.045	0.0154457
709.123	0.0154384
709.201	0.0152487
709.280	0.0150974
709.358	0.0150088
709.436	0.0148109
709.514	0.0148662
709.592	0.0148106
709.670	0.0145271
709.748	0.0145123
709.826	0.0143612
709.905	0.0143329
709.983	0.0142213
710.061	0.0140933
710.139	0.0141280
710.217	0.0141473
710.295	0.0140999
710.373	0.0140575
710.451	0.0140475
710.530	0.0140572
710.608	0.0140567
710.686	0.0142773
710.764	0.0142656
710.842	0.0141750
710.920	0.0142949
710.998	0.0143539
711.076	0.0144333
711.155	0.0145714
711.233	0.0145056
711.311	0.0145712
711.389	0.0147324
711.467	0.0149216
711.545	0.0150014
711.623	0.0149158
711.701	0.0149390
711.780	0.0151739
711.858	0.0152889
711.936	0.0152454
712.014	0.0152258
712.092	0.0152542
712.170	0.0154084
712.248	0.0153984
712.326	0.0153693
712.405	0.0153117
712.483	0.0151590
712.561	0.0152406
712.639	0.0154134
712.717	0.0152133
712.795	0.0150707
712.873	0.0150892
712.951	0.0150938
713.030	0.0148885
713.108	0.0149605
713.186	0.0148930
713.264	0.0148379
713.342	0.0147271
713.420	0.0148038
713.498	0.0147444
713.576	0.0147017
713.655	0.0147617
713.733	0.0146233
713.811	0.0145262
713.889	0.0146387
713.967	0.0143373
714.045	0.0144112
714.123	0.0143130
714.201	0.0142982
714.280	0.0143864
714.358	0.0142989
714.436	0.0142623
714.514	0.0141619
714.592	0.0143015
714.670	0.0144322
714.748	0.0145311
714.826	0.0145585
714.905	0.0147260
714.983	0.0146875
715.061	0.0148045
715.139	0.0149763
715.217	0.0149548
715.295	0.0150150
715.373	0.0149745
715.451	0.0149275
715.530	0.0150653
715.608	0.0150015
715.686	0.0149938
715.764	0.0149260
715.842	0.0149784
715.920	0.0150588
715.998	0.0152433
716.076	0.0151134
716.155	0.0150901
716.233	0.0151017
716.311	0.0153426
716.389	0.0152773
716.467	0.0153085
716.545	0.0154395
716.623	0.0153271
716.701	0.0153467
716.780	0.0154663
716.858	0.0153671
716.936	0.0152907
717.014	0.0153436
717.092	0.0152515
717.170	0.0151920
717.248	0.0150192
717.326	0.0152707
717.405	0.0150643
717.483	0.0149174
717.561	0.0149966
717.639	0.0149353
717.717	0.0149155
717.795	0.0149310
717.873	0.0150520
717.951	0.0147800
718.030	0.0148581
718.108	0.0147388
718.186	0.0146439
718.264	0.0146144
718.342	0.0145511
718.420	0.0143197
718.498	0.0144785
718.576	0.0141827
718.655	0.0140556
718.733	0.0142059
718.811	0.0139252
718.889	0.0140038
718.967	0.0137844
719.045	0.0137124
719.123	0.0137691
719.201	0.0138722
719.280	0.0138954
719.358	0.0138042
719.436	0.0139239
719.514	0.0139816
719.592	0.0140125
719.670	0.0141006
719.748	0.0140678
719.826	0.0141902
719.905	0.0141193
719.983	0.0141132
720.061	0.0144017
720.139	0.0142535
720.217	0.0143345
720.295	0.0143777
720.373	0.0145638
720.451	0.0144427
720.530	0.0144718
720.608	0.0144412
720.686	0.0146444
720.764	0.0146834
720.842	0.0147181
720.920	0.0147421
720.998	0.0146169
721.076	0.0146414
721.155	0.0148604
721.233	0.0148563
721.311	0.0148352
721.389	0.0149142
721.467	0.0148975
721.545	0.0149149
721.623	0.0149972
721.701	0.0149188
721.780	0.0150512
721.858	0.0150979
721.936	0.0151098
722.014	0.0152215
722.092	0.0151647
722.170	0.0152163
722.248	0.0153070
722.326	0.0152943
722.405	0.0152473
722.483	0.0151328
722.561	0.0150867
722.639	0.0152281
722.717	0.0152427
722.795	0.0151544
722.873	0.0151286
722.951	0.0150590
723.030	0.0149316
723.108	0.0149765
723.186	0.0150513
723.264	0.0148957
723.342	0.0148715
723.420	0.0147533
723.498	0.0147451
723.576	0.0146510
723.655	0.0147776
723.733	0.0145666
723.811	0.0145553
723.889	0.0146380
723.967	0.0144665
724.045	0.0144807
724.123	0.0143236
724.201	0.0142734
724.280	0.0143098
724.358	0.0142333
724.436	0.0142715
724.514	0.0140556
724.592	0.0139013
724.670	0.0139555
724.748	0.0139912
724.826	0.0141797
724.905	0.0140957
724.983	0.0140149
725.061	0.0140830
725.139	0.0141487
725.217	0.0143455
725.295	0.0144730
725.373	0.0143588
725.451	0.0144162
725.530	0.0146426
725.608	0.0147094
725.686	0.0146922
