05/20/2022	16:49:03	Ver.	4.1	UNKNOWN
Optical Delay	639.982744	Delta X		0.078125	Sweeps	1	Scan Rate	0/0
Coordinates	Axis 1	NaN	Axis 2	NaN	Axis 3	NaN	Axis 4	NaN	Axis 5	NaN	Axis 6	0.000000
TX Power	0.000000	RX Power	0.000000

639.983	0.0147269
640.061	0.0148077
640.139	0.0148994
640.217	0.0147898
640.295	0.0148000
640.373	0.0147508
640.451	0.0149117
640.530	0.0148051
640.608	0.0148289
640.686	0.0147491
640.764	0.0148602
640.842	0.0147647
640.920	0.0148492
640.998	0.0148676
641.076	0.0148025
641.155	0.0147237
641.233	0.0147858
641.311	0.0147828
641.389	0.0146860
641.467	0.0145702
641.545	0.0146405
641.623	0.0147302
641.701	0.0147657
641.780	0.0147643
641.858	0.0146958
641.936	0.0147027
642.014	0.0149362
642.092	0.0147402
642.170	0.0145999
642.248	0.0146877
642.326	0.0148352
642.405	0.0148316
642.483	0.0146948
642.561	0.0148940
642.639	0.0148674
642.717	0.0148881
642.795	0.0149067
642.873	0.0148556
642.951	0.0148228
643.030	0.0149797
643.108	0.0151472
643.186	0.0149902
643.264	0.0149786
643.342	0.0150711
643.420	0.0151075
643.498	0.0150755
643.576	0.0152560
643.655	0.0151743
643.733	0.0150850
643.811	0.0151929
643.889	0.0150338
643.967	0.0150139
644.045	0.0150954
644.123	0.0151862
644.201	0.0149954
644.280	0.0150739
644.358	0.0151560
644.436	0.0150652
644.514	0.0151075
644.592	0.0151910
644.670	0.0151911
644.748	0.0152155
644.826	0.0151978
644.905	0.0152190
644.983	0.0151391
645.061	0.0150803
645.139	0.0151737
645.217	0.0152000
645.295	0.0151756
645.373	0.0151389
645.451	0.0151402
645.530	0.0153173
645.608	0.0151350
645.686	0.0150354
645.764	0.0151310
645.842	0.0152612
645.920	0.0150963
645.998	0.0149601
646.076	0.0150390
646.155	0.0149643
646.233	0.0151513
646.311	0.0150337
646.389	0.0149487
646.467	0.0149158
646.545	0.0148949
646.623	0.0148582
646.701	0.0148538
646.780	0.0148930
646.858	0.0147007
646.936	0.0147800
647.014	0.0147331
647.092	0.0147304
647.170	0.0147431
647.248	0.0146268
647.326	0.0147207
647.405	0.0148103
647.483	0.0146732
647.561	0.0145532
647.639	0.0146212
647.717	0.0147563
647.795	0.0146378
647.873	0.0145629
647.951	0.0146349
648.030	0.0145346
648.108	0.0145460
648.186	0.0146124
648.264	0.0146323
648.342	0.0144738
648.420	0.0145712
648.498	0.0144887
648.576	0.0145927
648.655	0.0144415
648.733	0.0145026
648.811	0.0145934
648.889	0.0145376
648.967	0.0144604
649.045	0.0144838
649.123	0.0145519
649.201	0.0144856
649.280	0.0145820
649.358	0.0144441
649.436	0.0145701
649.514	0.0145322
649.592	0.0145555
649.670	0.0146070
649.748	0.0146427
649.826	0.0146549
649.905	0.0146237
649.983	0.0147583
650.061	0.0147149
650.139	0.0146555
650.217	0.0146458
650.295	0.0146996
650.373	0.0148320
650.451	0.0147871
650.530	0.0146854
650.608	0.0146020
650.686	0.0146670
650.764	0.0147752
650.842	0.0146761
650.920	0.0147698
650.998	0.0148376
651.076	0.0146355
651.155	0.0149253
651.233	0.0147575
651.311	0.0148837
651.389	0.0149094
651.467	0.0149588
651.545	0.0147404
651.623	0.0147840
651.701	0.0148555
651.780	0.0148713
651.858	0.0150075
651.936	0.0148220
652.014	0.0147636
652.092	0.0147397
652.170	0.0148532
652.248	0.0146983
652.326	0.0147141
652.405	0.0147089
652.483	0.0146522
652.561	0.0147572
652.639	0.0147852
652.717	0.0146688
652.795	0.0145554
652.873	0.0146749
652.951	0.0145648
653.030	0.0146680
653.108	0.0147478
653.186	0.0146278
653.264	0.0146671
653.342	0.0146844
653.420	0.0146809
653.498	0.0146452
653.576	0.0147443
653.655	0.0147422
653.733	0.0147768
653.811	0.0146800
653.889	0.0148376
653.967	0.0148206
654.045	0.0146258
654.123	0.0146900
654.201	0.0147368
654.280	0.0147173
654.358	0.0148259
654.436	0.0147972
654.514	0.0146511
654.592	0.0145853
654.670	0.0146648
654.748	0.0146555
654.826	0.0147517
654.905	0.0147234
654.983	0.0145198
655.061	0.0147314
655.139	0.0147808
655.217	0.0146841
655.295	0.0146535
655.373	0.0146821
655.451	0.0146383
655.530	0.0146332
655.608	0.0148546
655.686	0.0147452
655.764	0.0146993
655.842	0.0147583
655.920	0.0146632
655.998	0.0149809
656.076	0.0149760
656.155	0.0149154
656.233	0.0149003
656.311	0.0148540
656.389	0.0149571
656.467	0.0149669
656.545	0.0148011
656.623	0.0148212
656.701	0.0147992
656.780	0.0148058
656.858	0.0148802
656.936	0.0148451
657.014	0.0148980
657.092	0.0149110
657.170	0.0147372
657.248	0.0147800
657.326	0.0148679
657.405	0.0148283
657.483	0.0149126
657.561	0.0148710
657.639	0.0148470
657.717	0.0147247
657.795	0.0147694
657.873	0.0147793
657.951	0.0148213
658.030	0.0148587
658.108	0.0147704
658.186	0.0145715
658.264	0.0146636
658.342	0.0147674
658.420	0.0147203
658.498	0.0148499
658.576	0.0147353
658.655	0.0147420
658.733	0.0147813
658.811	0.0146203
658.889	0.0147746
658.967	0.0149412
659.045	0.0147598
659.123	0.0146583
659.201	0.0147551
659.280	0.0147598
659.358	0.0147025
659.436	0.0148041
659.514	0.0148922
659.592	0.0148891
659.670	0.0148419
659.748	0.0148871
659.826	0.0148040
659.905	0.0148612
659.983	0.0150656
660.061	0.0149136
660.139	0.0147604
660.217	0.0148582
660.295	0.0149097
660.373	0.0147112
660.451	0.0148727
660.530	0.0148644
660.608	0.0147655
660.686	0.0146864
660.764	0.0148996
660.842	0.0148007
660.920	0.0148402
660.998	0.0148112
661.076	0.0149253
661.155	0.0150061
661.233	0.0149691
661.311	0.0149510
661.389	0.0148795
661.467	0.0149654
661.545	0.0149531
661.623	0.0149915
661.701	0.0149966
661.780	0.0150808
661.858	0.0150293
661.936	0.0149110
662.014	0.0148890
662.092	0.0149058
662.170	0.0148241
662.248	0.0149097
662.326	0.0147989
662.405	0.0147883
662.483	0.0148062
662.561	0.0148759
662.639	0.0149323
662.717	0.0148994
662.795	0.0148895
662.873	0.0148997
662.951	0.0147906
663.030	0.0147000
663.108	0.0150089
663.186	0.0149541
663.264	0.0148430
663.342	0.0148882
663.420	0.0149007
663.498	0.0149838
663.576	0.0148045
663.655	0.0147711
663.733	0.0149497
663.811	0.0149332
663.889	0.0149323
663.967	0.0148915
664.045	0.0149434
664.123	0.0150081
664.201	0.0148682
664.280	0.0149482
664.358	0.0149740
664.436	0.0149854
664.514	0.0151665
664.592	0.0150238
664.670	0.0150958
664.748	0.0151207
664.826	0.0150980
664.905	0.0152789
664.983	0.0155029
665.061	0.0151626
665.139	0.0151897
665.217	0.0152390
665.295	0.0152949
665.373	0.0153105
665.451	0.0153082
665.530	0.0153162
665.608	0.0153539
665.686	0.0152287
665.764	0.0152926
665.842	0.0152258
665.920	0.0152343
665.998	0.0152707
666.076	0.0151785
666.155	0.0151035
666.233	0.0150421
666.311	0.0150447
666.389	0.0150290
666.467	0.0148756
666.545	0.0148731
666.623	0.0147169
666.701	0.0147536
666.780	0.0147273
666.858	0.0145954
666.936	0.0146028
667.014	0.0145649
667.092	0.0144979
667.170	0.0144320
667.248	0.0144167
667.326	0.0145721
667.405	0.0145098
667.483	0.0144733
667.561	0.0145318
667.639	0.0145090
667.717	0.0144542
667.795	0.0146398
667.873	0.0146213
667.951	0.0147430
668.030	0.0146409
668.108	0.0146818
668.186	0.0150101
668.264	0.0149905
668.342	0.0150706
668.420	0.0151155
668.498	0.0152050
668.576	0.0152206
668.655	0.0153683
668.733	0.0155083
668.811	0.0154386
668.889	0.0154447
668.967	0.0154282
669.045	0.0155180
669.123	0.0155045
669.201	0.0154945
669.280	0.0153529
669.358	0.0154777
669.436	0.0154417
669.514	0.0155140
669.592	0.0153907
669.670	0.0153042
669.748	0.0152216
669.826	0.0150276
669.905	0.0149796
669.983	0.0147791
670.061	0.0147005
670.139	0.0146519
670.217	0.0143653
670.295	0.0142996
670.373	0.0142420
670.451	0.0140963
670.530	0.0141767
670.608	0.0138051
670.686	0.0137100
670.764	0.0136010
670.842	0.0135944
670.920	0.0136829
670.998	0.0136434
671.076	0.0135842
671.155	0.0138118
671.233	0.0137045
671.311	0.0139107
671.389	0.0139263
671.467	0.0140190
671.545	0.0140958
671.623	0.0141795
671.701	0.0143494
671.780	0.0143720
671.858	0.0148425
671.936	0.0147729
672.014	0.0149689
672.092	0.0148964
672.170	0.0151743
672.248	0.0153477
672.326	0.0153293
672.405	0.0155421
672.483	0.0157971
672.561	0.0158618
672.639	0.0159692
672.717	0.0161475
672.795	0.0160717
672.873	0.0160432
672.951	0.0161536
673.030	0.0161713
673.108	0.0162631
673.186	0.0162778
673.264	0.0161818
673.342	0.0158974
673.420	0.0157236
673.498	0.0158040
673.576	0.0155491
673.655	0.0153271
673.733	0.0152697
673.811	0.0150387
673.889	0.0148820
673.967	0.0146769
674.045	0.0143643
674.123	0.0144619
674.201	0.0142934
674.280	0.0140215
674.358	0.0139098
674.436	0.0138811
674.514	0.0137651
674.592	0.0136684
674.670	0.0136546
674.748	0.0134488
674.826	0.0134933
674.905	0.0135873
674.983	0.0135088
675.061	0.0134820
675.139	0.0135895
675.217	0.0138253
675.295	0.0137776
675.373	0.0137970
675.451	0.0140968
675.530	0.0143357
675.608	0.0143974
675.686	0.0146556
675.764	0.0146777
675.842	0.0147388
675.920	0.0149718
675.998	0.0151099
676.076	0.0152651
676.155	0.0153780
676.233	0.0156668
676.311	0.0155820
676.389	0.0155991
676.467	0.0157055
676.545	0.0157972
676.623	0.0157327
676.701	0.0159068
676.780	0.0159174
676.858	0.0158677
676.936	0.0158991
677.014	0.0157125
677.092	0.0155681
677.170	0.0155994
677.248	0.0155356
677.326	0.0153524
677.405	0.0152380
677.483	0.0150911
677.561	0.0151478
677.639	0.0150278
677.717	0.0148650
677.795	0.0148531
677.873	0.0147245
677.951	0.0146844
678.030	0.0146844
678.108	0.0145634
678.186	0.0145575
678.264	0.0145760
678.342	0.0145598
678.420	0.0143942
678.498	0.0144199
678.576	0.0145168
678.655	0.0145826
678.733	0.0144666
678.811	0.0144462
678.889	0.0143996
678.967	0.0143577
679.045	0.0144216
679.123	0.0145245
679.201	0.0143875
679.280	0.0143828
679.358	0.0145395
679.436	0.0144075
679.514	0.0144772
679.592	0.0145702
679.670	0.0146737
679.748	0.0147123
679.826	0.0145730
679.905	0.0146394
679.983	0.0145255
680.061	0.0145580
680.139	0.0146869
680.217	0.0145728
680.295	0.0144579
680.373	0.0145862
680.451	0.0146149
680.530	0.0146683
680.608	0.0145316
680.686	0.0146300
680.764	0.0147513
680.842	0.0148510
680.920	0.0148795
680.998	0.0149831
681.076	0.0150567
681.155	0.0151355
681.233	0.0151711
681.311	0.0153960
681.389	0.0154729
681.467	0.0153983
681.545	0.0155006
681.623	0.0154300
681.701	0.0154459
681.780	0.0153665
681.858	0.0153282
681.936	0.0153012
682.014	0.0152725
682.092	0.0151762
682.170	0.0152138
682.248	0.0151564
682.326	0.0150080
682.405	0.0148994
682.483	0.0147902
682.561	0.0149056
682.639	0.0145980
682.717	0.0145403
682.795	0.0144263
682.873	0.0144112
682.951	0.0143701
683.030	0.0141951
683.108	0.0143098
683.186	0.0143482
683.264	0.0142873
683.342	0.0142735
683.420	0.0144193
683.498	0.0144939
683.576	0.0144456
683.655	0.0145959
683.733	0.0146384
683.811	0.0146549
683.889	0.0146446
683.967	0.0147145
684.045	0.0146355
684.123	0.0146836
684.201	0.0145831
684.280	0.0146758
684.358	0.0146169
684.436	0.0145927
684.514	0.0147408
684.592	0.0145734
684.670	0.0145924
684.748	0.0146316
684.826	0.0147646
684.905	0.0146703
684.983	0.0146308
685.061	0.0146701
685.139	0.0147485
685.217	0.0148699
685.295	0.0146986
685.373	0.0145024
685.451	0.0146204
685.530	0.0145909
685.608	0.0145184
685.686	0.0145860
685.764	0.0145730
685.842	0.0145959
685.920	0.0145613
685.998	0.0145839
686.076	0.0146326
686.155	0.0150151
686.233	0.0149799
686.311	0.0150375
686.389	0.0152026
686.467	0.0153099
686.545	0.0154404
686.623	0.0154809
686.701	0.0156245
686.780	0.0156065
686.858	0.0156725
686.936	0.0156779
687.014	0.0157684
687.092	0.0157936
687.170	0.0158092
687.248	0.0157411
687.326	0.0156982
687.405	0.0157218
687.483	0.0156317
687.561	0.0154749
687.639	0.0153683
687.717	0.0152290
687.795	0.0149232
687.873	0.0147491
687.951	0.0146441
688.030	0.0144217
688.108	0.0143330
688.186	0.0140598
688.264	0.0138276
688.342	0.0139603
688.420	0.0136991
688.498	0.0135766
688.576	0.0136874
688.655	0.0135171
688.733	0.0134984
688.811	0.0134888
688.889	0.0135297
688.967	0.0134873
689.045	0.0135383
689.123	0.0137563
689.201	0.0138824
689.280	0.0139840
689.358	0.0141441
689.436	0.0142815
689.514	0.0145139
689.592	0.0147646
689.670	0.0149216
689.748	0.0152316
689.826	0.0153397
689.905	0.0156928
689.983	0.0157899
690.061	0.0159403
690.139	0.0160881
690.217	0.0160542
690.295	0.0161583
690.373	0.0163048
690.451	0.0161664
690.530	0.0160588
690.608	0.0159323
690.686	0.0159097
690.764	0.0155910
690.842	0.0154627
690.920	0.0153107
690.998	0.0151803
691.076	0.0149113
691.155	0.0147330
691.233	0.0148290
691.311	0.0145973
691.389	0.0144014
691.467	0.0142934
691.545	0.0141450
691.623	0.0141524
691.701	0.0138757
691.780	0.0137453
691.858	0.0137742
691.936	0.0135892
692.014	0.0137081
692.092	0.0136398
692.170	0.0136285
692.248	0.0136200
692.326	0.0137659
692.405	0.0138486
692.483	0.0138970
692.561	0.0141011
692.639	0.0142328
692.717	0.0145625
692.795	0.0146977
692.873	0.0146617
692.951	0.0147701
693.030	0.0149413
693.108	0.0149707
693.186	0.0150625
693.264	0.0151604
693.342	0.0151550
693.420	0.0152607
693.498	0.0153109
693.576	0.0152128
693.655	0.0152203
693.733	0.0153278
693.811	0.0153075
693.889	0.0153947
693.967	0.0153622
694.045	0.0152987
694.123	0.0153577
694.201	0.0153959
694.280	0.0152837
694.358	0.0152071
694.436	0.0153820
694.514	0.0152732
694.592	0.0149859
694.670	0.0149316
694.748	0.0149606
694.826	0.0149596
694.905	0.0147981
694.983	0.0147157
695.061	0.0148405
695.139	0.0147169
695.217	0.0146783
695.295	0.0147659
695.373	0.0149052
695.451	0.0146940
695.530	0.0147985
695.608	0.0148358
695.686	0.0148141
695.764	0.0150285
695.842	0.0148792
695.920	0.0148534
695.998	0.0148856
696.076	0.0148831
696.155	0.0148605
696.233	0.0147003
696.311	0.0147424
696.389	0.0147085
696.467	0.0148028
696.545	0.0145521
696.623	0.0145139
696.701	0.0144941
696.780	0.0144985
696.858	0.0143732
696.936	0.0144248
697.014	0.0142530
697.092	0.0142628
697.170	0.0144023
697.248	0.0143223
697.326	0.0144389
697.405	0.0143962
697.483	0.0144944
697.561	0.0144827
697.639	0.0145349
697.717	0.0146094
697.795	0.0144972
697.873	0.0148003
697.951	0.0149120
698.030	0.0149065
698.108	0.0151192
698.186	0.0152773
698.264	0.0154116
698.342	0.0154699
698.420	0.0156914
698.498	0.0157269
698.576	0.0157468
698.655	0.0158247
698.733	0.0159117
698.811	0.0158646
698.889	0.0157666
698.967	0.0158884
699.045	0.0158681
699.123	0.0157331
699.201	0.0157626
699.280	0.0155282
699.358	0.0155846
699.436	0.0155212
699.514	0.0154026
699.592	0.0152048
699.670	0.0152768
699.748	0.0151176
699.826	0.0149987
699.905	0.0146365
699.983	0.0145291
700.061	0.0145844
700.139	0.0146087
700.217	0.0142337
700.295	0.0141354
700.373	0.0140881
700.451	0.0140479
700.530	0.0140768
700.608	0.0139751
700.686	0.0138175
700.764	0.0137667
700.842	0.0137989
700.920	0.0137984
700.998	0.0136947
701.076	0.0137417
701.155	0.0137443
701.233	0.0138142
701.311	0.0136331
701.389	0.0139148
701.467	0.0138935
701.545	0.0137788
701.623	0.0139406
701.701	0.0141292
701.780	0.0142410
701.858	0.0143744
701.936	0.0144900
702.014	0.0146747
702.092	0.0147077
702.170	0.0148917
702.248	0.0150800
702.326	0.0150871
702.405	0.0152501
702.483	0.0153281
702.561	0.0155029
702.639	0.0156149
702.717	0.0158752
702.795	0.0158767
702.873	0.0159088
702.951	0.0160327
703.030	0.0160802
703.108	0.0161253
703.186	0.0161749
703.264	0.0161005
703.342	0.0162828
703.420	0.0162660
703.498	0.0161730
703.576	0.0162330
703.655	0.0159223
703.733	0.0159009
703.811	0.0157668
703.889	0.0155949
703.967	0.0154584
704.045	0.0153435
704.123	0.0152553
704.201	0.0152737
704.280	0.0150385
704.358	0.0148315
704.436	0.0144770
704.514	0.0144903
704.592	0.0143596
704.670	0.0140899
704.748	0.0140516
704.826	0.0137266
704.905	0.0137916
704.983	0.0136468
705.061	0.0134985
705.139	0.0135239
705.217	0.0134724
705.295	0.0133892
705.373	0.0132809
705.451	0.0133645
705.530	0.0134504
705.608	0.0133469
705.686	0.0134373
705.764	0.0135002
705.842	0.0137072
705.920	0.0138173
705.998	0.0139130
706.076	0.0139754
706.155	0.0141189
706.233	0.0140793
706.311	0.0144147
706.389	0.0145451
706.467	0.0145087
706.545	0.0148049
706.623	0.0148267
706.701	0.0149281
706.780	0.0149845
706.858	0.0150648
706.936	0.0152094
707.014	0.0152690
707.092	0.0153802
707.170	0.0154868
707.248	0.0154520
707.326	0.0154911
707.405	0.0155366
707.483	0.0155357
707.561	0.0157130
707.639	0.0157042
707.717	0.0158389
707.795	0.0159328
707.873	0.0158984
707.951	0.0159185
708.030	0.0161638
708.108	0.0158752
708.186	0.0160453
708.264	0.0159333
708.342	0.0158636
708.420	0.0157830
708.498	0.0156511
708.576	0.0154393
708.655	0.0154708
708.733	0.0155267
708.811	0.0153655
708.889	0.0150505
708.967	0.0150120
709.045	0.0149545
709.123	0.0148238
709.201	0.0144861
709.280	0.0143336
709.358	0.0143283
709.436	0.0143035
709.514	0.0141492
709.592	0.0139737
709.670	0.0138493
709.748	0.0137166
709.826	0.0136468
709.905	0.0134567
709.983	0.0133564
710.061	0.0135211
710.139	0.0134202
710.217	0.0134776
710.295	0.0134727
710.373	0.0134583
710.451	0.0136681
710.530	0.0138184
710.608	0.0138940
710.686	0.0140690
710.764	0.0141139
710.842	0.0143130
710.920	0.0144624
710.998	0.0146139
711.076	0.0147732
711.155	0.0148083
711.233	0.0150503
711.311	0.0151252
711.389	0.0150278
711.467	0.0152980
711.545	0.0154395
711.623	0.0154713
711.701	0.0153788
711.780	0.0155247
711.858	0.0153802
711.936	0.0152582
712.014	0.0153014
712.092	0.0152345
712.170	0.0152783
712.248	0.0152141
712.326	0.0150375
712.405	0.0150502
712.483	0.0147543
712.561	0.0148456
712.639	0.0148041
712.717	0.0146874
712.795	0.0144742
712.873	0.0145206
712.951	0.0143983
713.030	0.0144347
713.108	0.0144019
713.186	0.0143029
713.264	0.0142817
713.342	0.0141792
713.420	0.0140587
713.498	0.0141946
713.576	0.0141464
713.655	0.0139766
713.733	0.0141150
713.811	0.0141787
713.889	0.0141792
713.967	0.0140928
714.045	0.0142492
714.123	0.0142532
714.201	0.0143317
714.280	0.0143754
714.358	0.0145409
714.436	0.0144308
714.514	0.0144420
714.592	0.0143693
714.670	0.0143804
714.748	0.0142985
714.826	0.0145010
714.905	0.0145076
714.983	0.0146057
715.061	0.0145607
715.139	0.0144814
715.217	0.0145465
715.295	0.0145280
715.373	0.0146767
715.451	0.0147753
715.530	0.0147797
715.608	0.0148503
715.686	0.0148853
715.764	0.0149157
715.842	0.0148978
715.920	0.0150063
715.998	0.0149921
716.076	0.0149527
716.155	0.0150652
716.233	0.0150951
716.311	0.0151076
716.389	0.0151108
716.467	0.0152515
716.545	0.0151060
716.623	0.0151013
716.701	0.0152397
716.780	0.0152174
716.858	0.0151426
716.936	0.0150883
717.014	0.0152590
717.092	0.0151601
717.170	0.0150428
717.248	0.0150720
717.326	0.0148772
717.405	0.0148378
717.483	0.0146566
717.561	0.0146014
717.639	0.0144285
717.717	0.0143239
717.795	0.0141992
717.873	0.0140607
717.951	0.0142416
718.030	0.0140196
718.108	0.0140317
718.186	0.0140208
718.264	0.0140904
718.342	0.0140451
718.420	0.0140183
718.498	0.0141589
718.576	0.0141431
718.655	0.0141707
718.733	0.0142902
718.811	0.0142294
718.889	0.0141899
718.967	0.0143199
719.045	0.0144764
719.123	0.0145056
719.201	0.0146400
719.280	0.0147366
719.358	0.0146909
719.436	0.0149284
719.514	0.0148916
719.592	0.0149940
719.670	0.0151301
719.748	0.0151506
719.826	0.0151424
719.905	0.0152486
719.983	0.0153041
720.061	0.0153732
720.139	0.0152737
720.217	0.0152030
720.295	0.0152901
720.373	0.0154353
720.451	0.0153844
720.530	0.0153465
720.608	0.0154975
720.686	0.0153509
720.764	0.0154642
720.842	0.0152549
720.920	0.0153662
720.998	0.0153338
721.076	0.0152749
721.155	0.0152648
721.233	0.0152275
721.311	0.0153255
721.389	0.0151271
721.467	0.0152539
721.545	0.0152561
721.623	0.0151643
721.701	0.0152051
721.780	0.0152366
721.858	0.0152656
721.936	0.0152615
722.014	0.0152419
722.092	0.0153569
722.170	0.0153413
722.248	0.0153522
722.326	0.0152818
722.405	0.0153773
722.483	0.0154301
722.561	0.0153963
722.639	0.0154263
722.717	0.0155029
722.795	0.0153609
722.873	0.0152672
722.951	0.0154580
723.030	0.0153184
723.108	0.0153790
723.186	0.0153136
723.264	0.0152948
723.342	0.0152954
723.420	0.0152955
723.498	0.0150652
723.576	0.0150144
723.655	0.0148547
723.733	0.0147628
723.811	0.0145303
723.889	0.0144120
723.967	0.0143712
724.045	0.0141646
724.123	0.0140285
724.201	0.0138969
724.280	0.0137969
724.358	0.0136188
724.436	0.0135725
724.514	0.0136229
724.592	0.0135194
724.670	0.0135276
724.748	0.0135188
724.826	0.0136281
724.905	0.0137732
724.983	0.0137614
725.061	0.0139294
725.139	0.0140775
725.217	0.0142252
725.295	0.0144434
725.373	0.0144135
725.451	0.0146276
725.530	0.0148202
725.608	0.0150696
725.686	0.0151219
