05/20/2022	16:49:23	Ver.	4.1	UNKNOWN
Optical Delay	639.982744	Delta X		0.078125	Sweeps	1	Scan Rate	0/0
Coordinates	Axis 1	NaN	Axis 2	NaN	Axis 3	NaN	Axis 4	NaN	Axis 5	NaN	Axis 6	0.000000
TX Power	0.000000	RX Power	0.000000

639.983	0.0147369
640.061	0.0148721
640.139	0.0150114
640.217	0.0151123
640.295	0.0149509
640.373	0.0149303
640.451	0.0150266
640.530	0.0151016
640.608	0.0150323
640.686	0.0151286
640.764	0.0151149
640.842	0.0149987
640.920	0.0150738
640.998	0.0150713
641.076	0.0151159
641.155	0.0150730
641.233	0.0150887
641.311	0.0150828
641.389	0.0151377
641.467	0.0151522
641.545	0.0151590
641.623	0.0151752
641.701	0.0151703
641.780	0.0149924
641.858	0.0150951
641.936	0.0151378
642.014	0.0151117
642.092	0.0151688
642.170	0.0151087
642.248	0.0151184
642.326	0.0150927
642.405	0.0151011
642.483	0.0151425
642.561	0.0149126
642.639	0.0150391
642.717	0.0151067
642.795	0.0149194
642.873	0.0149422
642.951	0.0148203
643.030	0.0147370
643.108	0.0148094
643.186	0.0147649
643.264	0.0148239
643.342	0.0147576
643.420	0.0147518
643.498	0.0145147
643.576	0.0145924
643.655	0.0145901
643.733	0.0144875
643.811	0.0146357
643.889	0.0146247
643.967	0.0145689
644.045	0.0146044
644.123	0.0146691
644.201	0.0145473
644.280	0.0145566
644.358	0.0145334
644.436	0.0146350
644.514	0.0146434
644.592	0.0144532
644.670	0.0144458
644.748	0.0144811
644.826	0.0145284
644.905	0.0146682
644.983	0.0145644
645.061	0.0144258
645.139	0.0145953
645.217	0.0143510
645.295	0.0146758
645.373	0.0145925
645.451	0.0144933
645.530	0.0144825
645.608	0.0145507
645.686	0.0143906
645.764	0.0145277
645.842	0.0146024
645.920	0.0145033
645.998	0.0145271
646.076	0.0143987
646.155	0.0145300
646.233	0.0146297
646.311	0.0144410
646.389	0.0145888
646.467	0.0146759
646.545	0.0145592
646.623	0.0145164
646.701	0.0145547
646.780	0.0146364
646.858	0.0145155
646.936	0.0146546
647.014	0.0146087
647.092	0.0145170
647.170	0.0147424
647.248	0.0147396
647.326	0.0148709
647.405	0.0148039
647.483	0.0147204
647.561	0.0147687
647.639	0.0148908
647.717	0.0148344
647.795	0.0146587
647.873	0.0146972
647.951	0.0148106
648.030	0.0148026
648.108	0.0147679
648.186	0.0148239
648.264	0.0147057
648.342	0.0147534
648.420	0.0147768
648.498	0.0146013
648.576	0.0146149
648.655	0.0147743
648.733	0.0148116
648.811	0.0146416
648.889	0.0147067
648.967	0.0146486
649.045	0.0147068
649.123	0.0145798
649.201	0.0146670
649.280	0.0146487
649.358	0.0145806
649.436	0.0145798
649.514	0.0146608
649.592	0.0145478
649.670	0.0144958
649.748	0.0146474
649.826	0.0146780
649.905	0.0143235
649.983	0.0144768
650.061	0.0146068
650.139	0.0146707
650.217	0.0145900
650.295	0.0145984
650.373	0.0145522
650.451	0.0145860
650.530	0.0145961
650.608	0.0147191
650.686	0.0144991
650.764	0.0145573
650.842	0.0147000
650.920	0.0146951
650.998	0.0146286
651.076	0.0146664
651.155	0.0145767
651.233	0.0145426
651.311	0.0147681
651.389	0.0147103
651.467	0.0146755
651.545	0.0145821
651.623	0.0147649
651.701	0.0147060
651.780	0.0146296
651.858	0.0148374
651.936	0.0148295
652.014	0.0146529
652.092	0.0145847
652.170	0.0147401
652.248	0.0146687
652.326	0.0147446
652.405	0.0147830
652.483	0.0148093
652.561	0.0147727
652.639	0.0146844
652.717	0.0146859
652.795	0.0147001
652.873	0.0146817
652.951	0.0148476
653.030	0.0148782
653.108	0.0147208
653.186	0.0147129
653.264	0.0149036
653.342	0.0148125
653.420	0.0146360
653.498	0.0147959
653.576	0.0147462
653.655	0.0147350
653.733	0.0149033
653.811	0.0147437
653.889	0.0146337
653.967	0.0146289
654.045	0.0146704
654.123	0.0146326
654.201	0.0146745
654.280	0.0146252
654.358	0.0146632
654.436	0.0145989
654.514	0.0145858
654.592	0.0146973
654.670	0.0146815
654.748	0.0145277
654.826	0.0144955
654.905	0.0146449
654.983	0.0147234
655.061	0.0146722
655.139	0.0146169
655.217	0.0145994
655.295	0.0146091
655.373	0.0146330
655.451	0.0147165
655.530	0.0147487
655.608	0.0147025
655.686	0.0147312
655.764	0.0147490
655.842	0.0147443
655.920	0.0147203
655.998	0.0148000
656.076	0.0145875
656.155	0.0148139
656.233	0.0148078
656.311	0.0147581
656.389	0.0147598
656.467	0.0146824
656.545	0.0147227
656.623	0.0148345
656.701	0.0146786
656.780	0.0148342
656.858	0.0148056
656.936	0.0147425
657.014	0.0147187
657.092	0.0147401
657.170	0.0147714
657.248	0.0146890
657.326	0.0146162
657.405	0.0146515
657.483	0.0146201
657.561	0.0147919
657.639	0.0145530
657.717	0.0145123
657.795	0.0146529
657.873	0.0147675
657.951	0.0146027
658.030	0.0146687
658.108	0.0147956
658.186	0.0146989
658.264	0.0146487
658.342	0.0145565
658.420	0.0146970
658.498	0.0148254
658.576	0.0146523
658.655	0.0147109
658.733	0.0147560
658.811	0.0146687
658.889	0.0148110
658.967	0.0148481
659.045	0.0148171
659.123	0.0148319
659.201	0.0147816
659.280	0.0149012
659.358	0.0147629
659.436	0.0147437
659.514	0.0149285
659.592	0.0149497
659.670	0.0148057
659.748	0.0146571
659.826	0.0148736
659.905	0.0148957
659.983	0.0148386
660.061	0.0148732
660.139	0.0148193
660.217	0.0148821
660.295	0.0147787
660.373	0.0148545
660.451	0.0149545
660.530	0.0148370
660.608	0.0149449
660.686	0.0149500
660.764	0.0148821
660.842	0.0150120
660.920	0.0149783
660.998	0.0148603
661.076	0.0150686
661.155	0.0149301
661.233	0.0149467
661.311	0.0149665
661.389	0.0149237
661.467	0.0149133
661.545	0.0149480
661.623	0.0149651
661.701	0.0148302
661.780	0.0147279
661.858	0.0148148
661.936	0.0147839
662.014	0.0148606
662.092	0.0148322
662.170	0.0147651
662.248	0.0147292
662.326	0.0148393
662.405	0.0148427
662.483	0.0148969
662.561	0.0149215
662.639	0.0149063
662.717	0.0148780
662.795	0.0149242
662.873	0.0148721
662.951	0.0148717
663.030	0.0148854
663.108	0.0148231
663.186	0.0149380
663.264	0.0148958
663.342	0.0149020
663.420	0.0149483
663.498	0.0149067
663.576	0.0148744
663.655	0.0149529
663.733	0.0149660
663.811	0.0149341
663.889	0.0150129
663.967	0.0150809
664.045	0.0150928
664.123	0.0151003
664.201	0.0151405
664.280	0.0151369
664.358	0.0150053
664.436	0.0151245
664.514	0.0150579
664.592	0.0150027
664.670	0.0150835
664.748	0.0150848
664.826	0.0149192
664.905	0.0150800
664.983	0.0151265
665.061	0.0150155
665.139	0.0150132
665.217	0.0150634
665.295	0.0147981
665.373	0.0149027
665.451	0.0148440
665.530	0.0147561
665.608	0.0146683
665.686	0.0145749
665.764	0.0146893
665.842	0.0145929
665.920	0.0144025
665.998	0.0145468
666.076	0.0145140
666.155	0.0144693
666.233	0.0143154
666.311	0.0141195
666.389	0.0142214
666.467	0.0141902
666.545	0.0142554
666.623	0.0141044
666.701	0.0141962
666.780	0.0142153
666.858	0.0142035
666.936	0.0141234
667.014	0.0140623
667.092	0.0144156
667.170	0.0142969
667.248	0.0142582
667.326	0.0144235
667.405	0.0145594
667.483	0.0144758
667.561	0.0145582
667.639	0.0145589
667.717	0.0147461
667.795	0.0148531
667.873	0.0149617
667.951	0.0150629
668.030	0.0150991
668.108	0.0151116
668.186	0.0150404
668.264	0.0152814
668.342	0.0153410
668.420	0.0153674
668.498	0.0153638
668.576	0.0154082
668.655	0.0153394
668.733	0.0155230
668.811	0.0154811
668.889	0.0155410
668.967	0.0156031
669.045	0.0155329
669.123	0.0154614
669.201	0.0153540
669.280	0.0154583
669.358	0.0153810
669.436	0.0152634
669.514	0.0151254
669.592	0.0151362
669.670	0.0149093
669.748	0.0147871
669.826	0.0147308
669.905	0.0145512
669.983	0.0143437
670.061	0.0141206
670.139	0.0138319
670.217	0.0138854
670.295	0.0138311
670.373	0.0137199
670.451	0.0136150
670.530	0.0135265
670.608	0.0135982
670.686	0.0136115
670.764	0.0136969
670.842	0.0137647
670.920	0.0139114
670.998	0.0139525
671.076	0.0141990
671.155	0.0141126
671.233	0.0142439
671.311	0.0144312
671.389	0.0144308
671.467	0.0146412
671.545	0.0148233
671.623	0.0148552
671.701	0.0150367
671.780	0.0151275
671.858	0.0152821
671.936	0.0153462
672.014	0.0156541
672.092	0.0156941
672.170	0.0156347
672.248	0.0157607
672.326	0.0158028
672.405	0.0159622
672.483	0.0161883
672.561	0.0160122
672.639	0.0160049
672.717	0.0159028
672.795	0.0159673
672.873	0.0158463
672.951	0.0157222
673.030	0.0156701
673.108	0.0155821
673.186	0.0153838
673.264	0.0152831
673.342	0.0151016
673.420	0.0149703
673.498	0.0148296
673.576	0.0146290
673.655	0.0144149
673.733	0.0143546
673.811	0.0142214
673.889	0.0139236
673.967	0.0139342
674.045	0.0139196
674.123	0.0136821
674.201	0.0136598
674.280	0.0136540
674.358	0.0137678
674.436	0.0135531
674.514	0.0135825
674.592	0.0136393
674.670	0.0135787
674.748	0.0136734
674.826	0.0138165
674.905	0.0138409
674.983	0.0140437
675.061	0.0140368
675.139	0.0143077
675.217	0.0144469
675.295	0.0145610
675.373	0.0145571
675.451	0.0148320
675.530	0.0150035
675.608	0.0151562
675.686	0.0154018
675.764	0.0154223
675.842	0.0154626
675.920	0.0157057
675.998	0.0156380
676.076	0.0155640
676.155	0.0158003
676.233	0.0158253
676.311	0.0158324
676.389	0.0159179
676.467	0.0156128
676.545	0.0157578
676.623	0.0158276
676.701	0.0155077
676.780	0.0153715
676.858	0.0153351
676.936	0.0152805
677.014	0.0150043
677.092	0.0149835
677.170	0.0148100
677.248	0.0147479
677.326	0.0147258
677.405	0.0146220
677.483	0.0144343
677.561	0.0143929
677.639	0.0142979
677.717	0.0141269
677.795	0.0141364
677.873	0.0141814
677.951	0.0140983
678.030	0.0140253
678.108	0.0142037
678.186	0.0140917
678.264	0.0138847
678.342	0.0140480
678.420	0.0141611
678.498	0.0141724
678.576	0.0141416
678.655	0.0141337
678.733	0.0141013
678.811	0.0141600
678.889	0.0143804
678.967	0.0142797
679.045	0.0142553
679.123	0.0143671
679.201	0.0145582
679.280	0.0144930
679.358	0.0145774
679.436	0.0145750
679.514	0.0146460
679.592	0.0145474
679.670	0.0147152
679.748	0.0147910
679.826	0.0146954
679.905	0.0146049
679.983	0.0147735
680.061	0.0144566
680.139	0.0145702
680.217	0.0147071
680.295	0.0147411
680.373	0.0146970
680.451	0.0148537
680.530	0.0148101
680.608	0.0149827
680.686	0.0149954
680.764	0.0148927
680.842	0.0150631
680.920	0.0153045
680.998	0.0152703
681.076	0.0153113
681.155	0.0153177
681.233	0.0154022
681.311	0.0153680
681.389	0.0152713
681.467	0.0151819
681.545	0.0151324
681.623	0.0151862
681.701	0.0152862
681.780	0.0151167
681.858	0.0150169
681.936	0.0149242
682.014	0.0150431
682.092	0.0150014
682.170	0.0148994
682.248	0.0149184
682.326	0.0146146
682.405	0.0147824
682.483	0.0146036
682.561	0.0146538
682.639	0.0145377
682.717	0.0145798
682.795	0.0144563
682.873	0.0145118
682.951	0.0144781
683.030	0.0143258
683.108	0.0144834
683.186	0.0144695
683.264	0.0145836
683.342	0.0145458
683.420	0.0145703
683.498	0.0146199
683.576	0.0146812
683.655	0.0147072
683.733	0.0147944
683.811	0.0146512
683.889	0.0145268
683.967	0.0146887
684.045	0.0147346
684.123	0.0145372
684.201	0.0146408
684.280	0.0145313
684.358	0.0146696
684.436	0.0146940
684.514	0.0145796
684.592	0.0147214
684.670	0.0145167
684.748	0.0145490
684.826	0.0145331
684.905	0.0144557
684.983	0.0145429
685.061	0.0145374
685.139	0.0144792
685.217	0.0142725
685.295	0.0143240
685.373	0.0142272
685.451	0.0141034
685.530	0.0143000
685.608	0.0144422
685.686	0.0143410
685.764	0.0142872
685.842	0.0144221
685.920	0.0146040
685.998	0.0146413
686.076	0.0147511
686.155	0.0148463
686.233	0.0148940
686.311	0.0151387
686.389	0.0151270
686.467	0.0152379
686.545	0.0155700
686.623	0.0154460
686.701	0.0155923
686.780	0.0156063
686.858	0.0156103
686.936	0.0155803
687.014	0.0156649
687.092	0.0154483
687.170	0.0155346
687.248	0.0152486
687.326	0.0152415
687.405	0.0151649
687.483	0.0151069
687.561	0.0148258
687.639	0.0146903
687.717	0.0146209
687.795	0.0144796
687.873	0.0143116
687.951	0.0141840
688.030	0.0139500
688.108	0.0139525
688.186	0.0138103
688.264	0.0135990
688.342	0.0135961
688.420	0.0134834
688.498	0.0136391
688.576	0.0136476
688.655	0.0135021
688.733	0.0135597
688.811	0.0135310
688.889	0.0138200
688.967	0.0138105
689.045	0.0140020
689.123	0.0140840
689.201	0.0141879
689.280	0.0144187
689.358	0.0145606
689.436	0.0146701
689.514	0.0149079
689.592	0.0151108
689.670	0.0153986
689.748	0.0155171
689.826	0.0156523
689.905	0.0157112
689.983	0.0157780
690.061	0.0158936
690.139	0.0159988
690.217	0.0159235
690.295	0.0158900
690.373	0.0158883
690.451	0.0156879
690.530	0.0156158
690.608	0.0154649
690.686	0.0153865
690.764	0.0151693
690.842	0.0148776
690.920	0.0149067
690.998	0.0147700
691.076	0.0145959
691.155	0.0144854
691.233	0.0145531
691.311	0.0143852
691.389	0.0143816
691.467	0.0141582
691.545	0.0140371
691.623	0.0139818
691.701	0.0139727
691.780	0.0139066
691.858	0.0138776
691.936	0.0138223
692.014	0.0140340
692.092	0.0140786
692.170	0.0140110
692.248	0.0142124
692.326	0.0143204
692.405	0.0144828
692.483	0.0145469
692.561	0.0146519
692.639	0.0147898
692.717	0.0149935
692.795	0.0149565
692.873	0.0150330
692.951	0.0152382
693.030	0.0151885
693.108	0.0153103
693.186	0.0153118
693.264	0.0151960
693.342	0.0153040
693.420	0.0154250
693.498	0.0153458
693.576	0.0153082
693.655	0.0153265
693.733	0.0153015
693.811	0.0155460
693.889	0.0154814
693.967	0.0154556
694.045	0.0153967
694.123	0.0153494
694.201	0.0154025
694.280	0.0153926
694.358	0.0154125
694.436	0.0152345
694.514	0.0151623
694.592	0.0151315
694.670	0.0149721
694.748	0.0148412
694.826	0.0147424
694.905	0.0146895
694.983	0.0147599
695.061	0.0147250
695.139	0.0146219
695.217	0.0147578
695.295	0.0147397
695.373	0.0147585
695.451	0.0147354
695.530	0.0147536
695.608	0.0146548
695.686	0.0147381
695.764	0.0147527
695.842	0.0147063
695.920	0.0147368
695.998	0.0146582
696.076	0.0146453
696.155	0.0145498
696.233	0.0145070
696.311	0.0142732
696.389	0.0142982
696.467	0.0143008
696.545	0.0143718
696.623	0.0142313
696.701	0.0143440
696.780	0.0143951
696.858	0.0142394
696.936	0.0143500
697.014	0.0143882
697.092	0.0143214
697.170	0.0143180
697.248	0.0144853
697.326	0.0146919
697.405	0.0146360
697.483	0.0145692
697.561	0.0146886
697.639	0.0148383
697.717	0.0149057
697.795	0.0148763
697.873	0.0152116
697.951	0.0152761
698.030	0.0153350
698.108	0.0154638
698.186	0.0155824
698.264	0.0157048
698.342	0.0157410
698.420	0.0158182
698.498	0.0158010
698.576	0.0157224
698.655	0.0156219
698.733	0.0156889
698.811	0.0156818
698.889	0.0156247
698.967	0.0155643
699.045	0.0154350
699.123	0.0153042
699.201	0.0153104
699.280	0.0151888
699.358	0.0149930
699.436	0.0148135
699.514	0.0146843
699.592	0.0147937
699.670	0.0147289
699.748	0.0145830
699.826	0.0144710
699.905	0.0141271
699.983	0.0141158
700.061	0.0140433
700.139	0.0140694
700.217	0.0140410
700.295	0.0138961
700.373	0.0137558
700.451	0.0135976
700.530	0.0136395
700.608	0.0138203
700.686	0.0138126
700.764	0.0138138
700.842	0.0139102
700.920	0.0136636
700.998	0.0138802
701.076	0.0139996
701.155	0.0140689
701.233	0.0139783
701.311	0.0141096
701.389	0.0142703
701.467	0.0142204
701.545	0.0142773
701.623	0.0145160
701.701	0.0146013
701.780	0.0146661
701.858	0.0146400
701.936	0.0145757
702.014	0.0148161
702.092	0.0149565
702.170	0.0150127
702.248	0.0151856
702.326	0.0151274
702.405	0.0152489
702.483	0.0153413
702.561	0.0154701
702.639	0.0156046
702.717	0.0155991
702.795	0.0156284
702.873	0.0156853
702.951	0.0158066
703.030	0.0157777
703.108	0.0156421
703.186	0.0158345
703.264	0.0157825
703.342	0.0157187
703.420	0.0158335
703.498	0.0159248
703.576	0.0156590
703.655	0.0155677
703.733	0.0155325
703.811	0.0154615
703.889	0.0154825
703.967	0.0152742
704.045	0.0151103
704.123	0.0149886
704.201	0.0148468
704.280	0.0147633
704.358	0.0146873
704.436	0.0143396
704.514	0.0141219
704.592	0.0140776
704.670	0.0140424
704.748	0.0139845
704.826	0.0137651
704.905	0.0136370
704.983	0.0136107
705.061	0.0134779
705.139	0.0133683
705.217	0.0134576
705.295	0.0134387
705.373	0.0133365
705.451	0.0132875
705.530	0.0134192
705.608	0.0134261
705.686	0.0133758
705.764	0.0134106
705.842	0.0136617
705.920	0.0137729
705.998	0.0139510
706.076	0.0140051
706.155	0.0141430
706.233	0.0143358
706.311	0.0144424
706.389	0.0146242
706.467	0.0146498
706.545	0.0148478
706.623	0.0149161
706.701	0.0149670
706.780	0.0149638
706.858	0.0148996
706.936	0.0152097
707.014	0.0152686
707.092	0.0151279
707.170	0.0153056
707.248	0.0152766
707.326	0.0154884
707.405	0.0156590
707.483	0.0156862
707.561	0.0155865
707.639	0.0157600
707.717	0.0157969
707.795	0.0158540
707.873	0.0157973
707.951	0.0157059
708.030	0.0158849
708.108	0.0158250
708.186	0.0157653
708.264	0.0157526
708.342	0.0157040
708.420	0.0155616
708.498	0.0154041
708.576	0.0154329
708.655	0.0152022
708.733	0.0149112
708.811	0.0148707
708.889	0.0148092
708.967	0.0147125
709.045	0.0144917
709.123	0.0144207
709.201	0.0141427
709.280	0.0140018
709.358	0.0139809
709.436	0.0138393
709.514	0.0137170
709.592	0.0135093
709.670	0.0133042
709.748	0.0132824
709.826	0.0132246
709.905	0.0131458
709.983	0.0130052
710.061	0.0129390
710.139	0.0129890
710.217	0.0131133
710.295	0.0132254
710.373	0.0134026
710.451	0.0133233
710.530	0.0136710
710.608	0.0137714
710.686	0.0137724
710.764	0.0140992
710.842	0.0143871
710.920	0.0144986
710.998	0.0146434
711.076	0.0148566
711.155	0.0149615
711.233	0.0151069
711.311	0.0151990
711.389	0.0152799
711.467	0.0154017
711.545	0.0153708
711.623	0.0152602
711.701	0.0154591
711.780	0.0156013
711.858	0.0153244
711.936	0.0153674
712.014	0.0154462
712.092	0.0153264
712.170	0.0153066
712.248	0.0152855
712.326	0.0150571
712.405	0.0149172
712.483	0.0148077
712.561	0.0146709
712.639	0.0146815
712.717	0.0145826
712.795	0.0144805
712.873	0.0143221
712.951	0.0142277
713.030	0.0141726
713.108	0.0140864
713.186	0.0140097
713.264	0.0138978
713.342	0.0138271
713.420	0.0138896
713.498	0.0139249
713.576	0.0139360
713.655	0.0138982
713.733	0.0140212
713.811	0.0140250
713.889	0.0142061
713.967	0.0143056
714.045	0.0143009
714.123	0.0143713
714.201	0.0145383
714.280	0.0146140
714.358	0.0147240
714.436	0.0147379
714.514	0.0147007
714.592	0.0147025
714.670	0.0146957
714.748	0.0149033
714.826	0.0148032
714.905	0.0148665
714.983	0.0149041
715.061	0.0148328
715.139	0.0149771
715.217	0.0150339
715.295	0.0149059
715.373	0.0150311
715.451	0.0152045
715.530	0.0151012
715.608	0.0152274
715.686	0.0151926
715.764	0.0152485
715.842	0.0152779
715.920	0.0153816
715.998	0.0154714
716.076	0.0154311
716.155	0.0153909
716.233	0.0153944
716.311	0.0154755
716.389	0.0154947
716.467	0.0154342
716.545	0.0155015
716.623	0.0154360
716.701	0.0154625
716.780	0.0155000
716.858	0.0155821
716.936	0.0154695
717.014	0.0153896
717.092	0.0154765
717.170	0.0151995
717.248	0.0151172
717.326	0.0150312
717.405	0.0151666
717.483	0.0148687
717.561	0.0148039
717.639	0.0147655
717.717	0.0147344
717.795	0.0146290
717.873	0.0144077
717.951	0.0143440
718.030	0.0144285
718.108	0.0143396
718.186	0.0142895
718.264	0.0143127
718.342	0.0142510
718.420	0.0142066
718.498	0.0142746
718.576	0.0141161
718.655	0.0142535
718.733	0.0143375
718.811	0.0142790
718.889	0.0142909
718.967	0.0144846
719.045	0.0144398
719.123	0.0145609
719.201	0.0146195
719.280	0.0145651
719.358	0.0149333
719.436	0.0149848
719.514	0.0150116
719.592	0.0149953
719.670	0.0150791
719.748	0.0151112
719.826	0.0151783
719.905	0.0150556
719.983	0.0151543
720.061	0.0149991
720.139	0.0150936
720.217	0.0150758
720.295	0.0150738
720.373	0.0151199
720.451	0.0151257
720.530	0.0151480
720.608	0.0151955
720.686	0.0150604
720.764	0.0151769
720.842	0.0151913
720.920	0.0150154
720.998	0.0150278
721.076	0.0149980
721.155	0.0150375
721.233	0.0148797
721.311	0.0148911
721.389	0.0146986
721.467	0.0146118
721.545	0.0145333
721.623	0.0146307
721.701	0.0146534
721.780	0.0147969
721.858	0.0145684
721.936	0.0147975
722.014	0.0148322
722.092	0.0148978
722.170	0.0149980
722.248	0.0150677
722.326	0.0150384
722.405	0.0152145
722.483	0.0151902
722.561	0.0152358
722.639	0.0150364
722.717	0.0151387
722.795	0.0153371
722.873	0.0151772
722.951	0.0152020
723.030	0.0151476
723.108	0.0153035
723.186	0.0150871
723.264	0.0149813
723.342	0.0150727
723.420	0.0150961
723.498	0.0150468
723.576	0.0148048
723.655	0.0147227
723.733	0.0146349
723.811	0.0145264
723.889	0.0142918
723.967	0.0143122
724.045	0.0141885
724.123	0.0138750
724.201	0.0136804
724.280	0.0136353
724.358	0.0134267
724.436	0.0133736
724.514	0.0133105
724.592	0.0133578
724.670	0.0133453
724.748	0.0133602
724.826	0.0134078
724.905	0.0136140
724.983	0.0137933
725.061	0.0139051
725.139	0.0140603
725.217	0.0143140
725.295	0.0145363
725.373	0.0145245
725.451	0.0146606
725.530	0.0148557
725.608	0.0150609
725.686	0.0151905
