05/20/2022	16:50:13	Ver.	4.1	UNKNOWN
Optical Delay	639.982744	Delta X		0.078125	Sweeps	1	Scan Rate	0/0
Coordinates	Axis 1	NaN	Axis 2	NaN	Axis 3	NaN	Axis 4	NaN	Axis 5	NaN	Axis 6	0.000000
TX Power	0.000000	RX Power	0.000000

639.983	0.0145570
640.061	0.0146214
640.139	0.0145624
640.217	0.0145695
640.295	0.0146014
640.373	0.0147636
640.451	0.0148058
640.530	0.0145765
640.608	0.0145071
640.686	0.0146919
640.764	0.0146990
640.842	0.0147110
640.920	0.0146172
640.998	0.0147279
641.076	0.0146375
641.155	0.0146801
641.233	0.0146510
641.311	0.0147115
641.389	0.0147768
641.467	0.0147578
641.545	0.0148659
641.623	0.0147318
641.701	0.0146050
641.780	0.0146711
641.858	0.0147861
641.936	0.0147360
642.014	0.0147141
642.092	0.0146330
642.170	0.0146659
642.248	0.0147782
642.326	0.0145625
642.405	0.0146683
642.483	0.0147639
642.561	0.0146996
642.639	0.0147360
642.717	0.0147548
642.795	0.0147028
642.873	0.0145940
642.951	0.0147389
643.030	0.0146500
643.108	0.0146578
643.186	0.0146062
643.264	0.0145694
643.342	0.0145387
643.420	0.0145527
643.498	0.0147212
643.576	0.0146219
643.655	0.0144743
643.733	0.0145854
643.811	0.0146882
643.889	0.0145715
643.967	0.0145382
644.045	0.0146648
644.123	0.0147440
644.201	0.0146501
644.280	0.0146133
644.358	0.0146432
644.436	0.0144544
644.514	0.0146131
644.592	0.0145897
644.670	0.0146550
644.748	0.0145771
644.826	0.0145764
644.905	0.0146066
644.983	0.0146111
645.061	0.0146487
645.139	0.0145431
645.217	0.0146799
645.295	0.0145435
645.373	0.0145960
645.451	0.0146124
645.530	0.0144944
645.608	0.0145567
645.686	0.0147510
645.764	0.0144374
645.842	0.0144743
645.920	0.0147205
645.998	0.0145901
646.076	0.0144724
646.155	0.0144549
646.233	0.0146424
646.311	0.0144599
646.389	0.0145961
646.467	0.0146967
646.545	0.0146275
646.623	0.0145515
646.701	0.0145805
646.780	0.0146471
646.858	0.0146238
646.936	0.0146325
647.014	0.0146637
647.092	0.0146787
647.170	0.0147363
647.248	0.0145792
647.326	0.0146636
647.405	0.0145988
647.483	0.0146591
647.561	0.0147247
647.639	0.0147369
647.717	0.0146331
647.795	0.0146657
647.873	0.0146287
647.951	0.0147312
648.030	0.0146566
648.108	0.0145918
648.186	0.0145534
648.264	0.0145808
648.342	0.0147042
648.420	0.0146046
648.498	0.0146249
648.576	0.0146847
648.655	0.0147422
648.733	0.0146714
648.811	0.0147556
648.889	0.0147522
648.967	0.0146220
649.045	0.0147265
649.123	0.0147976
649.201	0.0148193
649.280	0.0146538
649.358	0.0148429
649.436	0.0146812
649.514	0.0148161
649.592	0.0147101
649.670	0.0148034
649.748	0.0148735
649.826	0.0148285
649.905	0.0146962
649.983	0.0147069
650.061	0.0146540
650.139	0.0147928
650.217	0.0148715
650.295	0.0148779
650.373	0.0148067
650.451	0.0147395
650.530	0.0147359
650.608	0.0148232
650.686	0.0148175
650.764	0.0147996
650.842	0.0148141
650.920	0.0148969
650.998	0.0147881
651.076	0.0148239
651.155	0.0148666
651.233	0.0147884
651.311	0.0148000
651.389	0.0148785
651.467	0.0149821
651.545	0.0148006
651.623	0.0149210
651.701	0.0149246
651.780	0.0149572
651.858	0.0148003
651.936	0.0149689
652.014	0.0147270
652.092	0.0147993
652.170	0.0150027
652.248	0.0149845
652.326	0.0148885
652.405	0.0149612
652.483	0.0149449
652.561	0.0149277
652.639	0.0147863
652.717	0.0147905
652.795	0.0148529
652.873	0.0149149
652.951	0.0148315
653.030	0.0148734
653.108	0.0149598
653.186	0.0148111
653.264	0.0147736
653.342	0.0149700
653.420	0.0148454
653.498	0.0147897
653.576	0.0148566
653.655	0.0149194
653.733	0.0147436
653.811	0.0147732
653.889	0.0146977
653.967	0.0147585
654.045	0.0148300
654.123	0.0145982
654.201	0.0146959
654.280	0.0147474
654.358	0.0147686
654.436	0.0147933
654.514	0.0146956
654.592	0.0147437
654.670	0.0148143
654.748	0.0147759
654.826	0.0148663
654.905	0.0147838
654.983	0.0147112
655.061	0.0148158
655.139	0.0147272
655.217	0.0146442
655.295	0.0146073
655.373	0.0148376
655.451	0.0147155
655.530	0.0147572
655.608	0.0148135
655.686	0.0148111
655.764	0.0147279
655.842	0.0147715
655.920	0.0147131
655.998	0.0148493
656.076	0.0148899
656.155	0.0147256
656.233	0.0146228
656.311	0.0146942
656.389	0.0147590
656.467	0.0147844
656.545	0.0147736
656.623	0.0147294
656.701	0.0147606
656.780	0.0147847
656.858	0.0147947
656.936	0.0148277
657.014	0.0147674
657.092	0.0147080
657.170	0.0147960
657.248	0.0146562
657.326	0.0146797
657.405	0.0147170
657.483	0.0146734
657.561	0.0146390
657.639	0.0147357
657.717	0.0147052
657.795	0.0147370
657.873	0.0148103
657.951	0.0147993
658.030	0.0148914
658.108	0.0149641
658.186	0.0148424
658.264	0.0150304
658.342	0.0149644
658.420	0.0149852
658.498	0.0148967
658.576	0.0148666
658.655	0.0147796
658.733	0.0148185
658.811	0.0148772
658.889	0.0147476
658.967	0.0147411
659.045	0.0147317
659.123	0.0147948
659.201	0.0147885
659.280	0.0147206
659.358	0.0147621
659.436	0.0147410
659.514	0.0148167
659.592	0.0149612
659.670	0.0149006
659.748	0.0148800
659.826	0.0147929
659.905	0.0149053
659.983	0.0147514
660.061	0.0147188
660.139	0.0147148
660.217	0.0145949
660.295	0.0146555
660.373	0.0145742
660.451	0.0144554
660.530	0.0144382
660.608	0.0145399
660.686	0.0144856
660.764	0.0144356
660.842	0.0145290
660.920	0.0144746
660.998	0.0144518
661.076	0.0144446
661.155	0.0144897
661.233	0.0145837
661.311	0.0146049
661.389	0.0146455
661.467	0.0146251
661.545	0.0145602
661.623	0.0146223
661.701	0.0145370
661.780	0.0147416
661.858	0.0147084
661.936	0.0146679
662.014	0.0146658
662.092	0.0147243
662.170	0.0147737
662.248	0.0147619
662.326	0.0148267
662.405	0.0148917
662.483	0.0148804
662.561	0.0148024
662.639	0.0149660
662.717	0.0150214
662.795	0.0150528
662.873	0.0150182
662.951	0.0149712
663.030	0.0149662
663.108	0.0149527
663.186	0.0150291
663.264	0.0148637
663.342	0.0150298
663.420	0.0150632
663.498	0.0149513
663.576	0.0149190
663.655	0.0149583
663.733	0.0149571
663.811	0.0150636
663.889	0.0149716
663.967	0.0149947
664.045	0.0148674
664.123	0.0148885
664.201	0.0148734
664.280	0.0148776
664.358	0.0146132
664.436	0.0146531
664.514	0.0146353
664.592	0.0145420
664.670	0.0145000
664.748	0.0145580
664.826	0.0144853
664.905	0.0144063
664.983	0.0143157
665.061	0.0142866
665.139	0.0142092
665.217	0.0142901
665.295	0.0143298
665.373	0.0142131
665.451	0.0142084
665.530	0.0141465
665.608	0.0141944
665.686	0.0141455
665.764	0.0143118
665.842	0.0143027
665.920	0.0144007
665.998	0.0143627
666.076	0.0143417
666.155	0.0144361
666.233	0.0145232
666.311	0.0148142
666.389	0.0147192
666.467	0.0147343
666.545	0.0148392
666.623	0.0149327
666.701	0.0149111
666.780	0.0150782
666.858	0.0150168
666.936	0.0151267
667.014	0.0152428
667.092	0.0151575
667.170	0.0151616
667.248	0.0152966
667.326	0.0153397
667.405	0.0152922
667.483	0.0152551
667.561	0.0152376
667.639	0.0152200
667.717	0.0152483
667.795	0.0151024
667.873	0.0151115
667.951	0.0150829
668.030	0.0150114
668.108	0.0149220
668.186	0.0149114
668.264	0.0146745
668.342	0.0147661
668.420	0.0145081
668.498	0.0143880
668.576	0.0144305
668.655	0.0141799
668.733	0.0139800
668.811	0.0139142
668.889	0.0138335
668.967	0.0136584
669.045	0.0136549
669.123	0.0136655
669.201	0.0135927
669.280	0.0136431
669.358	0.0136666
669.436	0.0136672
669.514	0.0136114
669.592	0.0138522
669.670	0.0138642
669.748	0.0137727
669.826	0.0140461
669.905	0.0140054
669.983	0.0143071
670.061	0.0142912
670.139	0.0144107
670.217	0.0145956
670.295	0.0147328
670.373	0.0148456
670.451	0.0150407
670.530	0.0149975
670.608	0.0152046
670.686	0.0153960
670.764	0.0155981
670.842	0.0156839
670.920	0.0156812
670.998	0.0157958
671.076	0.0159682
671.155	0.0158989
671.233	0.0158392
671.311	0.0159496
671.389	0.0161144
671.467	0.0159543
671.545	0.0158598
671.623	0.0157168
671.701	0.0155694
671.780	0.0154789
671.858	0.0153623
671.936	0.0152494
672.014	0.0150871
672.092	0.0148125
672.170	0.0148610
672.248	0.0145837
672.326	0.0144670
672.405	0.0142376
672.483	0.0141623
672.561	0.0140092
672.639	0.0139153
672.717	0.0137998
672.795	0.0135909
672.873	0.0135681
672.951	0.0135397
673.030	0.0134089
673.108	0.0133688
673.186	0.0134683
673.264	0.0134536
673.342	0.0134665
673.420	0.0136474
673.498	0.0135482
673.576	0.0136977
673.655	0.0139329
673.733	0.0137823
673.811	0.0138979
673.889	0.0138794
673.967	0.0141556
674.045	0.0143281
674.123	0.0143541
674.201	0.0143789
674.280	0.0147412
674.358	0.0147706
674.436	0.0149265
674.514	0.0152215
674.592	0.0154371
674.670	0.0157069
674.748	0.0156895
674.826	0.0159695
674.905	0.0160081
674.983	0.0160123
675.061	0.0159653
675.139	0.0160224
675.217	0.0160229
675.295	0.0160318
675.373	0.0158379
675.451	0.0158750
675.530	0.0157487
675.608	0.0155710
675.686	0.0154221
675.764	0.0154507
675.842	0.0153117
675.920	0.0149220
675.998	0.0149406
676.076	0.0147693
676.155	0.0145703
676.233	0.0144109
676.311	0.0142578
676.389	0.0141172
676.467	0.0139945
676.545	0.0140158
676.623	0.0136874
676.701	0.0137958
676.780	0.0137365
676.858	0.0135884
676.936	0.0136205
677.014	0.0136712
677.092	0.0136222
677.170	0.0136952
677.248	0.0137309
677.326	0.0137859
677.405	0.0138786
677.483	0.0140471
677.561	0.0140531
677.639	0.0140472
677.717	0.0142632
677.795	0.0143430
677.873	0.0145296
677.951	0.0143446
678.030	0.0146449
678.108	0.0147638
678.186	0.0146563
678.264	0.0147856
678.342	0.0148481
678.420	0.0147912
678.498	0.0147686
678.576	0.0149310
678.655	0.0150645
678.733	0.0148487
678.811	0.0148988
678.889	0.0149663
678.967	0.0148710
679.045	0.0148940
679.123	0.0147410
679.201	0.0146549
679.280	0.0149082
679.358	0.0147758
679.436	0.0147649
679.514	0.0147478
679.592	0.0147672
679.670	0.0148061
679.748	0.0147049
679.826	0.0146645
679.905	0.0147945
679.983	0.0147865
680.061	0.0147681
680.139	0.0146313
680.217	0.0148775
680.295	0.0148283
680.373	0.0148534
680.451	0.0148161
680.530	0.0147609
680.608	0.0149707
680.686	0.0149300
680.764	0.0148200
680.842	0.0148602
680.920	0.0149476
680.998	0.0149064
681.076	0.0149557
681.155	0.0149852
681.233	0.0150828
681.311	0.0149378
681.389	0.0149467
681.467	0.0151184
681.545	0.0151445
681.623	0.0151077
681.701	0.0150938
681.780	0.0149830
681.858	0.0149756
681.936	0.0150922
682.014	0.0149685
682.092	0.0149220
682.170	0.0149456
682.248	0.0148623
682.326	0.0148179
682.405	0.0148416
682.483	0.0147785
682.561	0.0145866
682.639	0.0146452
682.717	0.0146531
682.795	0.0147108
682.873	0.0147350
682.951	0.0147156
683.030	0.0147334
683.108	0.0147261
683.186	0.0146969
683.264	0.0148684
683.342	0.0147311
683.420	0.0146971
683.498	0.0146660
683.576	0.0146466
683.655	0.0147147
683.733	0.0147196
683.811	0.0145573
683.889	0.0144929
683.967	0.0144909
684.045	0.0145475
684.123	0.0145608
684.201	0.0145718
684.280	0.0144146
684.358	0.0146210
684.436	0.0146556
684.514	0.0147710
684.592	0.0148076
684.670	0.0148281
684.748	0.0148787
684.826	0.0149268
684.905	0.0149408
684.983	0.0149178
685.061	0.0148577
685.139	0.0148016
685.217	0.0150027
685.295	0.0151501
685.373	0.0150916
685.451	0.0150893
685.530	0.0154697
685.608	0.0153815
685.686	0.0154591
685.764	0.0155775
685.842	0.0156517
685.920	0.0157437
685.998	0.0157114
686.076	0.0158630
686.155	0.0157780
686.233	0.0158235
686.311	0.0156747
686.389	0.0155949
686.467	0.0155344
686.545	0.0154900
686.623	0.0153783
686.701	0.0153701
686.780	0.0152454
686.858	0.0151022
686.936	0.0149955
687.014	0.0146951
687.092	0.0148051
687.170	0.0147066
687.248	0.0145222
687.326	0.0143929
687.405	0.0142544
687.483	0.0141079
687.561	0.0140404
687.639	0.0139819
687.717	0.0138161
687.795	0.0137726
687.873	0.0136522
687.951	0.0137170
688.030	0.0138506
688.108	0.0138010
688.186	0.0139178
688.264	0.0139223
688.342	0.0139149
688.420	0.0139939
688.498	0.0141484
688.576	0.0142566
688.655	0.0142919
688.733	0.0143600
688.811	0.0144594
688.889	0.0145633
688.967	0.0147874
689.045	0.0147379
689.123	0.0149858
689.201	0.0149750
689.280	0.0151487
689.358	0.0153128
689.436	0.0153857
689.514	0.0152599
689.592	0.0155119
689.670	0.0155096
689.748	0.0156439
689.826	0.0158236
689.905	0.0156998
689.983	0.0156259
690.061	0.0157225
690.139	0.0155549
690.217	0.0153849
690.295	0.0153901
690.373	0.0153402
690.451	0.0152117
690.530	0.0150222
690.608	0.0149174
690.686	0.0148837
690.764	0.0148709
690.842	0.0147190
690.920	0.0145956
690.998	0.0145956
691.076	0.0144382
691.155	0.0143758
691.233	0.0145584
691.311	0.0142682
691.389	0.0140350
691.467	0.0139124
691.545	0.0140919
691.623	0.0139894
691.701	0.0140363
691.780	0.0141956
691.858	0.0139944
691.936	0.0139452
692.014	0.0140607
692.092	0.0140058
692.170	0.0143909
692.248	0.0142844
692.326	0.0142992
692.405	0.0143354
692.483	0.0146054
692.561	0.0145305
692.639	0.0146126
692.717	0.0147441
692.795	0.0148198
692.873	0.0148580
692.951	0.0149201
693.030	0.0148624
693.108	0.0150583
693.186	0.0152324
693.264	0.0150705
693.342	0.0150335
693.420	0.0151230
693.498	0.0151318
693.576	0.0150417
693.655	0.0151422
693.733	0.0152001
693.811	0.0149923
693.889	0.0150465
693.967	0.0149608
694.045	0.0148409
694.123	0.0148643
694.201	0.0147562
694.280	0.0145833
694.358	0.0146339
694.436	0.0147226
694.514	0.0146130
694.592	0.0146600
694.670	0.0147150
694.748	0.0145412
694.826	0.0144653
694.905	0.0143993
694.983	0.0142590
695.061	0.0142348
695.139	0.0142451
695.217	0.0143432
695.295	0.0142281
695.373	0.0142102
695.451	0.0141895
695.530	0.0142204
695.608	0.0141809
695.686	0.0142271
695.764	0.0141262
695.842	0.0143800
695.920	0.0143751
695.998	0.0142101
696.076	0.0143933
696.155	0.0144579
696.233	0.0145765
696.311	0.0146042
696.389	0.0146442
696.467	0.0147404
696.545	0.0147247
696.623	0.0148454
696.701	0.0149779
696.780	0.0148991
696.858	0.0151401
696.936	0.0153181
697.014	0.0152197
697.092	0.0151554
697.170	0.0153214
697.248	0.0154301
697.326	0.0154577
697.405	0.0153053
697.483	0.0153376
697.561	0.0154636
697.639	0.0154168
697.717	0.0152726
697.795	0.0152852
697.873	0.0151765
697.951	0.0151309
698.030	0.0151787
698.108	0.0151179
698.186	0.0150458
698.264	0.0148634
698.342	0.0148648
698.420	0.0147356
698.498	0.0146800
698.576	0.0144662
698.655	0.0143717
698.733	0.0144149
698.811	0.0143616
698.889	0.0141417
698.967	0.0138914
699.045	0.0140068
699.123	0.0140311
699.201	0.0138587
699.280	0.0137971
699.358	0.0136247
699.436	0.0137370
699.514	0.0136887
699.592	0.0137321
699.670	0.0137019
699.748	0.0137746
699.826	0.0139408
699.905	0.0140132
699.983	0.0139868
700.061	0.0140959
700.139	0.0141588
700.217	0.0141566
700.295	0.0143243
700.373	0.0143993
700.451	0.0143047
700.530	0.0143968
700.608	0.0147246
700.686	0.0146734
700.764	0.0147305
700.842	0.0147422
700.920	0.0149393
700.998	0.0150169
701.076	0.0151152
701.155	0.0151762
701.233	0.0150525
701.311	0.0149950
701.389	0.0150571
701.467	0.0150559
701.545	0.0149387
701.623	0.0147446
701.701	0.0148329
701.780	0.0147562
701.858	0.0146862
701.936	0.0145910
702.014	0.0146138
702.092	0.0145528
702.170	0.0145887
702.248	0.0146825
702.326	0.0145701
702.405	0.0145644
702.483	0.0149355
702.561	0.0148028
702.639	0.0146749
702.717	0.0147808
702.795	0.0148108
702.873	0.0148965
702.951	0.0150426
703.030	0.0148898
703.108	0.0149654
703.186	0.0149370
703.264	0.0150311
703.342	0.0149718
703.420	0.0150572
703.498	0.0150596
703.576	0.0149995
703.655	0.0151748
703.733	0.0149997
703.811	0.0150598
703.889	0.0150189
703.967	0.0148042
704.045	0.0147344
704.123	0.0146603
704.201	0.0146796
704.280	0.0146117
704.358	0.0144638
704.436	0.0143881
704.514	0.0142155
704.592	0.0141276
704.670	0.0139679
704.748	0.0139638
704.826	0.0139350
704.905	0.0138854
704.983	0.0138683
705.061	0.0138437
705.139	0.0138941
705.217	0.0139117
705.295	0.0138675
705.373	0.0140495
705.451	0.0139557
705.530	0.0139999
705.608	0.0140452
705.686	0.0142033
705.764	0.0141197
705.842	0.0143149
705.920	0.0144151
705.998	0.0143654
706.076	0.0144277
706.155	0.0147262
706.233	0.0146307
706.311	0.0148540
706.389	0.0150072
706.467	0.0151671
706.545	0.0153058
706.623	0.0155215
706.701	0.0155756
706.780	0.0156984
706.858	0.0158055
706.936	0.0158517
707.014	0.0161292
707.092	0.0161543
707.170	0.0162465
707.248	0.0161275
707.326	0.0161639
707.405	0.0161914
707.483	0.0163048
707.561	0.0162259
707.639	0.0162000
707.717	0.0162241
707.795	0.0160423
707.873	0.0159699
707.951	0.0158356
708.030	0.0157802
708.108	0.0156906
708.186	0.0155595
708.264	0.0155871
708.342	0.0153278
708.420	0.0152478
708.498	0.0152886
708.576	0.0150748
708.655	0.0148530
708.733	0.0147141
708.811	0.0147540
708.889	0.0145132
708.967	0.0142793
709.045	0.0140459
709.123	0.0138794
709.201	0.0138030
709.280	0.0137387
709.358	0.0135819
709.436	0.0135880
709.514	0.0133652
709.592	0.0132433
709.670	0.0132557
709.748	0.0132971
709.826	0.0132747
709.905	0.0136302
709.983	0.0136456
710.061	0.0137142
710.139	0.0138322
710.217	0.0138587
710.295	0.0140809
710.373	0.0142288
710.451	0.0143647
710.530	0.0145511
710.608	0.0145289
710.686	0.0147135
710.764	0.0149254
710.842	0.0148804
710.920	0.0151782
710.998	0.0152036
711.076	0.0153029
711.155	0.0154671
711.233	0.0154990
711.311	0.0158340
711.389	0.0158316
711.467	0.0159604
711.545	0.0159583
711.623	0.0159646
711.701	0.0157955
711.780	0.0158316
711.858	0.0158325
711.936	0.0157491
712.014	0.0156045
712.092	0.0155290
712.170	0.0152596
712.248	0.0150678
712.326	0.0151109
712.405	0.0148288
712.483	0.0148965
712.561	0.0148022
712.639	0.0146750
712.717	0.0145698
712.795	0.0144045
712.873	0.0143042
712.951	0.0142515
713.030	0.0143356
713.108	0.0140808
713.186	0.0139233
713.264	0.0141714
713.342	0.0141300
713.420	0.0140260
713.498	0.0140014
713.576	0.0139400
713.655	0.0141476
713.733	0.0141821
713.811	0.0143148
713.889	0.0144189
713.967	0.0144931
714.045	0.0146246
714.123	0.0148475
714.201	0.0147689
714.280	0.0149519
714.358	0.0151894
714.436	0.0152473
714.514	0.0153175
714.592	0.0153427
714.670	0.0154962
714.748	0.0155483
714.826	0.0155015
714.905	0.0154442
714.983	0.0154905
715.061	0.0155051
715.139	0.0153515
715.217	0.0151909
715.295	0.0151636
715.373	0.0151708
715.451	0.0151363
715.530	0.0148679
715.608	0.0147334
715.686	0.0145477
715.764	0.0146645
715.842	0.0145093
715.920	0.0145116
715.998	0.0144804
716.076	0.0146751
716.155	0.0146032
716.233	0.0144789
716.311	0.0144607
716.389	0.0145813
716.467	0.0145083
716.545	0.0144408
716.623	0.0144392
716.701	0.0145277
716.780	0.0148022
716.858	0.0144833
716.936	0.0143894
717.014	0.0145686
717.092	0.0145658
717.170	0.0145163
717.248	0.0146049
717.326	0.0147548
717.405	0.0145934
717.483	0.0146375
717.561	0.0145739
717.639	0.0146323
717.717	0.0146049
717.795	0.0145251
717.873	0.0145488
717.951	0.0144229
718.030	0.0142323
718.108	0.0143967
718.186	0.0143202
718.264	0.0142374
718.342	0.0141833
718.420	0.0141738
718.498	0.0140305
718.576	0.0139746
718.655	0.0140357
718.733	0.0141005
718.811	0.0140527
718.889	0.0141291
718.967	0.0142785
719.045	0.0143072
719.123	0.0144080
719.201	0.0145981
719.280	0.0145389
719.358	0.0146176
719.436	0.0148838
719.514	0.0146688
719.592	0.0148792
719.670	0.0149796
719.748	0.0149650
719.826	0.0150465
719.905	0.0151035
719.983	0.0149612
720.061	0.0150254
720.139	0.0150024
720.217	0.0148834
720.295	0.0151145
720.373	0.0150712
720.451	0.0149242
720.530	0.0149869
720.608	0.0149978
720.686	0.0148188
720.764	0.0148479
720.842	0.0147462
720.920	0.0146428
720.998	0.0146057
721.076	0.0145723
721.155	0.0145022
721.233	0.0143148
721.311	0.0143824
721.389	0.0143683
721.467	0.0144559
721.545	0.0141734
721.623	0.0143342
721.701	0.0142807
721.780	0.0143247
721.858	0.0142175
721.936	0.0142280
722.014	0.0144341
722.092	0.0143489
722.170	0.0142960
722.248	0.0143270
722.326	0.0144968
722.405	0.0143439
722.483	0.0143680
722.561	0.0145660
722.639	0.0147282
722.717	0.0146576
722.795	0.0146599
722.873	0.0148822
722.951	0.0149088
723.030	0.0147880
723.108	0.0147859
723.186	0.0147260
723.264	0.0147436
723.342	0.0146580
723.420	0.0145766
723.498	0.0146110
723.576	0.0146070
723.655	0.0146024
723.733	0.0145785
723.811	0.0145556
723.889	0.0145320
723.967	0.0144832
724.045	0.0145908
724.123	0.0143375
724.201	0.0143949
724.280	0.0143671
724.358	0.0142934
724.436	0.0142496
724.514	0.0143076
724.592	0.0141624
724.670	0.0141839
724.748	0.0140703
724.826	0.0140886
724.905	0.0142504
724.983	0.0141742
725.061	0.0141151
725.139	0.0141988
725.217	0.0143261
725.295	0.0143063
725.373	0.0145431
725.451	0.0145281
725.530	0.0145531
725.608	0.0147461
725.686	0.0148267
