05/20/2022	16:52:03	Ver.	4.1	UNKNOWN
Optical Delay	639.982744	Delta X		0.078125	Sweeps	1	Scan Rate	0/0
Coordinates	Axis 1	NaN	Axis 2	NaN	Axis 3	NaN	Axis 4	NaN	Axis 5	NaN	Axis 6	0.000000
TX Power	0.000000	RX Power	0.000000

639.983	0.0147912
640.061	0.0147394
640.139	0.0146671
640.217	0.0146622
640.295	0.0145023
640.373	0.0148041
640.451	0.0147314
640.530	0.0147298
640.608	0.0145962
640.686	0.0147411
640.764	0.0146624
640.842	0.0147260
640.920	0.0146001
640.998	0.0147142
641.076	0.0147827
641.155	0.0148128
641.233	0.0147187
641.311	0.0146877
641.389	0.0147800
641.467	0.0147182
641.545	0.0147601
641.623	0.0147499
641.701	0.0147386
641.780	0.0148577
641.858	0.0146339
641.936	0.0146453
642.014	0.0147396
642.092	0.0148009
642.170	0.0147401
642.248	0.0147135
642.326	0.0147675
642.405	0.0148578
642.483	0.0149509
642.561	0.0148386
642.639	0.0147083
642.717	0.0147631
642.795	0.0149052
642.873	0.0147313
642.951	0.0147652
643.030	0.0147839
643.108	0.0148461
643.186	0.0147088
643.264	0.0148289
643.342	0.0149294
643.420	0.0149735
643.498	0.0148405
643.576	0.0149693
643.655	0.0148230
643.733	0.0149962
643.811	0.0150300
643.889	0.0148212
643.967	0.0150098
644.045	0.0149695
644.123	0.0150050
644.201	0.0148264
644.280	0.0149395
644.358	0.0150183
644.436	0.0149078
644.514	0.0149448
644.592	0.0148693
644.670	0.0148352
644.748	0.0148152
644.826	0.0149097
644.905	0.0148688
644.983	0.0148537
645.061	0.0147626
645.139	0.0147772
645.217	0.0148156
645.295	0.0148296
645.373	0.0148396
645.451	0.0147073
645.530	0.0147950
645.608	0.0148000
645.686	0.0149639
645.764	0.0148987
645.842	0.0148595
645.920	0.0149396
645.998	0.0148363
646.076	0.0147942
646.155	0.0148158
646.233	0.0147249
646.311	0.0147518
646.389	0.0148232
646.467	0.0147144
646.545	0.0146982
646.623	0.0149068
646.701	0.0148502
646.780	0.0146822
646.858	0.0147789
646.936	0.0148460
647.014	0.0148330
647.092	0.0148057
647.170	0.0148580
647.248	0.0149039
647.326	0.0148086
647.405	0.0148492
647.483	0.0148234
647.561	0.0147118
647.639	0.0147997
647.717	0.0148019
647.795	0.0148604
647.873	0.0148833
647.951	0.0146959
648.030	0.0148269
648.108	0.0147141
648.186	0.0148418
648.264	0.0146754
648.342	0.0147436
648.420	0.0147497
648.498	0.0148609
648.576	0.0148666
648.655	0.0148874
648.733	0.0147237
648.811	0.0147686
648.889	0.0148293
648.967	0.0148564
649.045	0.0147985
649.123	0.0146695
649.201	0.0146907
649.280	0.0147343
649.358	0.0146558
649.436	0.0146553
649.514	0.0147292
649.592	0.0149126
649.670	0.0147836
649.748	0.0147810
649.826	0.0147943
649.905	0.0147887
649.983	0.0148254
650.061	0.0147894
650.139	0.0147556
650.217	0.0147830
650.295	0.0147761
650.373	0.0149073
650.451	0.0148239
650.530	0.0148521
650.608	0.0146470
650.686	0.0148239
650.764	0.0147200
650.842	0.0147006
650.920	0.0147864
650.998	0.0147311
651.076	0.0146912
651.155	0.0146671
651.233	0.0147226
651.311	0.0146496
651.389	0.0147507
651.467	0.0147924
651.545	0.0147835
651.623	0.0147940
651.701	0.0147769
651.780	0.0148338
651.858	0.0148368
651.936	0.0148938
652.014	0.0149165
652.092	0.0147124
652.170	0.0149117
652.248	0.0147972
652.326	0.0148827
652.405	0.0147988
652.483	0.0147971
652.561	0.0148845
652.639	0.0148629
652.717	0.0147665
652.795	0.0147216
652.873	0.0148471
652.951	0.0148058
653.030	0.0148386
653.108	0.0147509
653.186	0.0148304
653.264	0.0148677
653.342	0.0147527
653.420	0.0147280
653.498	0.0146238
653.576	0.0146952
653.655	0.0145968
653.733	0.0148907
653.811	0.0146437
653.889	0.0147774
653.967	0.0147809
654.045	0.0147598
654.123	0.0147620
654.201	0.0146540
654.280	0.0146939
654.358	0.0147628
654.436	0.0147205
654.514	0.0146581
654.592	0.0145139
654.670	0.0147714
654.748	0.0147340
654.826	0.0146716
654.905	0.0146637
654.983	0.0147508
655.061	0.0147028
655.139	0.0147346
655.217	0.0147148
655.295	0.0145539
655.373	0.0146453
655.451	0.0148167
655.530	0.0147254
655.608	0.0147015
655.686	0.0146825
655.764	0.0148450
655.842	0.0147822
655.920	0.0147101
655.998	0.0148894
656.076	0.0147946
656.155	0.0148508
656.233	0.0147676
656.311	0.0148727
656.389	0.0151023
656.467	0.0149245
656.545	0.0149003
656.623	0.0148552
656.701	0.0148698
656.780	0.0147780
656.858	0.0147644
656.936	0.0146984
657.014	0.0147181
657.092	0.0146773
657.170	0.0146903
657.248	0.0147491
657.326	0.0145770
657.405	0.0146413
657.483	0.0144878
657.561	0.0145553
657.639	0.0146666
657.717	0.0147121
657.795	0.0148038
657.873	0.0147009
657.951	0.0147362
658.030	0.0147063
658.108	0.0148640
658.186	0.0147569
658.264	0.0148679
658.342	0.0148244
658.420	0.0148206
658.498	0.0149134
658.576	0.0148582
658.655	0.0147305
658.733	0.0146483
658.811	0.0146539
658.889	0.0145955
658.967	0.0146404
659.045	0.0147057
659.123	0.0146346
659.201	0.0145387
659.280	0.0144813
659.358	0.0144540
659.436	0.0145304
659.514	0.0144793
659.592	0.0145184
659.670	0.0145514
659.748	0.0145480
659.826	0.0145707
659.905	0.0146573
659.983	0.0146189
660.061	0.0145914
660.139	0.0146092
660.217	0.0147408
660.295	0.0145943
660.373	0.0146315
660.451	0.0145960
660.530	0.0147190
660.608	0.0146871
660.686	0.0145779
660.764	0.0146790
660.842	0.0146911
660.920	0.0146938
660.998	0.0147329
661.076	0.0145947
661.155	0.0147060
661.233	0.0148396
661.311	0.0147368
661.389	0.0147986
661.467	0.0147569
661.545	0.0147611
661.623	0.0146413
661.701	0.0145302
661.780	0.0146589
661.858	0.0147157
661.936	0.0147845
662.014	0.0148631
662.092	0.0147428
662.170	0.0147398
662.248	0.0148387
662.326	0.0148021
662.405	0.0147323
662.483	0.0147217
662.561	0.0147887
662.639	0.0148136
662.717	0.0148122
662.795	0.0147208
662.873	0.0148589
662.951	0.0147899
663.030	0.0146513
663.108	0.0147737
663.186	0.0147233
663.264	0.0144224
663.342	0.0146327
663.420	0.0145605
663.498	0.0144308
663.576	0.0144550
663.655	0.0142524
663.733	0.0143857
663.811	0.0143996
663.889	0.0144337
663.967	0.0144479
664.045	0.0143152
664.123	0.0143657
664.201	0.0143127
664.280	0.0143293
664.358	0.0144877
664.436	0.0144566
664.514	0.0145757
664.592	0.0145396
664.670	0.0144756
664.748	0.0145782
664.826	0.0146832
664.905	0.0146181
664.983	0.0147396
665.061	0.0146728
665.139	0.0147668
665.217	0.0149560
665.295	0.0148360
665.373	0.0150513
665.451	0.0150336
665.530	0.0149947
665.608	0.0151138
665.686	0.0151264
665.764	0.0151158
665.842	0.0151613
665.920	0.0152341
665.998	0.0151804
666.076	0.0153714
666.155	0.0152027
666.233	0.0152138
666.311	0.0152292
666.389	0.0152384
666.467	0.0151293
666.545	0.0151065
666.623	0.0151157
666.701	0.0150341
666.780	0.0150822
666.858	0.0149411
666.936	0.0149574
667.014	0.0149283
667.092	0.0147646
667.170	0.0146659
667.248	0.0144765
667.326	0.0144223
667.405	0.0143472
667.483	0.0142715
667.561	0.0140463
667.639	0.0139687
667.717	0.0139583
667.795	0.0138161
667.873	0.0138248
667.951	0.0136794
668.030	0.0139001
668.108	0.0138325
668.186	0.0138287
668.264	0.0139796
668.342	0.0138422
668.420	0.0140038
668.498	0.0142167
668.576	0.0141882
668.655	0.0143609
668.733	0.0144666
668.811	0.0147057
668.889	0.0148071
668.967	0.0148039
669.045	0.0148772
669.123	0.0150851
669.201	0.0151824
669.280	0.0153667
669.358	0.0154797
669.436	0.0156709
669.514	0.0157172
669.592	0.0158994
669.670	0.0160217
669.748	0.0159966
669.826	0.0160542
669.905	0.0160315
669.983	0.0161435
670.061	0.0162877
670.139	0.0162018
670.217	0.0160283
670.295	0.0160175
670.373	0.0160583
670.451	0.0157956
670.530	0.0156342
670.608	0.0155992
670.686	0.0155335
670.764	0.0152177
670.842	0.0152576
670.920	0.0149914
670.998	0.0148831
671.076	0.0145923
671.155	0.0144933
671.233	0.0145715
671.311	0.0143626
671.389	0.0141419
671.467	0.0142083
671.545	0.0139467
671.623	0.0138374
671.701	0.0137582
671.780	0.0138110
671.858	0.0137616
671.936	0.0136359
672.014	0.0137472
672.092	0.0138781
672.170	0.0136879
672.248	0.0137544
672.326	0.0139109
672.405	0.0139106
672.483	0.0138818
672.561	0.0140305
672.639	0.0141730
672.717	0.0142616
672.795	0.0143945
672.873	0.0145609
672.951	0.0146214
673.030	0.0147259
673.108	0.0148522
673.186	0.0151286
673.264	0.0151717
673.342	0.0152034
673.420	0.0154914
673.498	0.0155110
673.576	0.0156829
673.655	0.0158655
673.733	0.0159147
673.811	0.0161963
673.889	0.0162982
673.967	0.0161841
674.045	0.0162682
674.123	0.0161947
674.201	0.0163735
674.280	0.0164497
674.358	0.0161209
674.436	0.0160632
674.514	0.0159943
674.592	0.0159145
674.670	0.0156850
674.748	0.0155322
674.826	0.0153337
674.905	0.0153106
674.983	0.0151154
675.061	0.0147702
675.139	0.0147034
675.217	0.0143584
675.295	0.0142295
675.373	0.0141584
675.451	0.0141481
675.530	0.0138311
675.608	0.0136529
675.686	0.0136627
675.764	0.0134335
675.842	0.0134013
675.920	0.0134767
675.998	0.0135721
676.076	0.0134180
676.155	0.0134882
676.233	0.0135101
676.311	0.0136515
676.389	0.0137873
676.467	0.0138576
676.545	0.0140611
676.623	0.0141508
676.701	0.0143471
676.780	0.0144741
676.858	0.0145556
676.936	0.0146719
677.014	0.0147765
677.092	0.0149554
677.170	0.0150027
677.248	0.0149255
677.326	0.0152500
677.405	0.0153004
677.483	0.0153288
677.561	0.0154361
677.639	0.0153894
677.717	0.0154562
677.795	0.0153342
677.873	0.0153889
677.951	0.0153840
678.030	0.0153384
678.108	0.0152281
678.186	0.0153773
678.264	0.0150826
678.342	0.0150916
678.420	0.0149785
678.498	0.0149490
678.576	0.0149578
678.655	0.0148350
678.733	0.0147832
678.811	0.0147043
678.889	0.0147294
678.967	0.0146436
679.045	0.0145271
679.123	0.0143243
679.201	0.0143964
679.280	0.0143749
679.358	0.0143295
679.436	0.0144522
679.514	0.0146095
679.592	0.0143488
679.670	0.0143915
679.748	0.0145685
679.826	0.0146265
679.905	0.0146908
679.983	0.0146799
680.061	0.0149084
680.139	0.0148832
680.217	0.0149675
680.295	0.0150660
680.373	0.0151622
680.451	0.0151921
680.530	0.0151518
680.608	0.0150919
680.686	0.0150835
680.764	0.0151600
680.842	0.0151692
680.920	0.0149700
680.998	0.0150232
681.076	0.0150328
681.155	0.0148762
681.233	0.0147698
681.311	0.0148541
681.389	0.0148447
681.467	0.0147060
681.545	0.0146975
681.623	0.0145863
681.701	0.0145328
681.780	0.0146722
681.858	0.0145152
681.936	0.0143336
682.014	0.0145942
682.092	0.0143394
682.170	0.0142901
682.248	0.0142935
682.326	0.0141826
682.405	0.0140999
682.483	0.0140266
682.561	0.0139744
682.639	0.0140330
682.717	0.0140036
682.795	0.0140029
682.873	0.0142300
682.951	0.0140584
683.030	0.0141721
683.108	0.0140212
683.186	0.0141354
683.264	0.0141911
683.342	0.0140722
683.420	0.0142321
683.498	0.0142655
683.576	0.0142281
683.655	0.0143620
683.733	0.0146048
683.811	0.0144970
683.889	0.0144954
683.967	0.0147890
684.045	0.0148427
684.123	0.0149220
684.201	0.0150116
684.280	0.0150745
684.358	0.0152113
684.436	0.0153731
684.514	0.0153471
684.592	0.0151477
684.670	0.0153791
684.748	0.0155154
684.826	0.0154882
684.905	0.0154297
684.983	0.0153323
685.061	0.0152879
685.139	0.0154520
685.217	0.0155697
685.295	0.0153244
685.373	0.0152344
685.451	0.0154173
685.530	0.0154290
685.608	0.0154553
685.686	0.0153418
685.764	0.0152703
685.842	0.0151327
685.920	0.0152077
685.998	0.0153087
686.076	0.0150249
686.155	0.0150970
686.233	0.0150250
686.311	0.0149065
686.389	0.0147933
686.467	0.0147978
686.545	0.0145965
686.623	0.0146008
686.701	0.0144210
686.780	0.0140868
686.858	0.0141497
686.936	0.0139743
687.014	0.0139045
687.092	0.0136430
687.170	0.0134910
687.248	0.0135580
687.326	0.0134318
687.405	0.0133916
687.483	0.0134467
687.561	0.0133633
687.639	0.0134247
687.717	0.0132516
687.795	0.0132754
687.873	0.0135461
687.951	0.0135316
688.030	0.0136530
688.108	0.0136705
688.186	0.0137636
688.264	0.0139027
688.342	0.0141258
688.420	0.0141711
688.498	0.0143107
688.576	0.0144685
688.655	0.0147391
688.733	0.0148104
688.811	0.0149155
688.889	0.0151437
688.967	0.0153381
689.045	0.0154710
689.123	0.0157127
689.201	0.0157887
689.280	0.0158298
689.358	0.0158243
689.436	0.0159583
689.514	0.0159409
689.592	0.0160542
689.670	0.0160359
689.748	0.0159776
689.826	0.0159586
689.905	0.0159673
689.983	0.0158291
690.061	0.0156633
690.139	0.0157051
690.217	0.0154185
690.295	0.0153750
690.373	0.0152657
690.451	0.0150087
690.530	0.0148479
690.608	0.0146459
690.686	0.0144228
690.764	0.0143365
690.842	0.0141389
690.920	0.0138025
690.998	0.0139438
691.076	0.0136067
691.155	0.0135588
691.233	0.0135905
691.311	0.0136033
691.389	0.0135483
691.467	0.0137006
691.545	0.0135703
691.623	0.0138830
691.701	0.0139158
691.780	0.0138336
691.858	0.0140211
691.936	0.0141633
692.014	0.0142958
692.092	0.0142182
692.170	0.0142854
692.248	0.0144287
692.326	0.0145756
692.405	0.0145304
692.483	0.0146646
692.561	0.0147568
692.639	0.0147070
692.717	0.0149196
692.795	0.0150845
692.873	0.0151135
692.951	0.0152156
693.030	0.0154953
693.108	0.0156465
693.186	0.0155936
693.264	0.0155859
693.342	0.0155154
693.420	0.0156733
693.498	0.0156985
693.576	0.0154837
693.655	0.0155219
693.733	0.0154868
693.811	0.0154078
693.889	0.0152210
693.967	0.0151794
694.045	0.0150622
694.123	0.0149763
694.201	0.0149144
694.280	0.0148451
694.358	0.0149046
694.436	0.0149096
694.514	0.0148042
694.592	0.0147975
694.670	0.0147090
694.748	0.0146948
694.826	0.0145284
694.905	0.0146576
694.983	0.0144032
695.061	0.0144977
695.139	0.0143082
695.217	0.0143172
695.295	0.0142872
695.373	0.0143392
695.451	0.0142728
695.530	0.0141803
695.608	0.0143298
695.686	0.0143712
695.764	0.0144575
695.842	0.0144538
695.920	0.0145969
695.998	0.0146696
696.076	0.0146516
696.155	0.0150005
696.233	0.0149846
696.311	0.0151692
696.389	0.0151239
696.467	0.0151658
696.545	0.0152534
696.623	0.0152785
696.701	0.0151657
696.780	0.0152669
696.858	0.0152080
696.936	0.0152654
697.014	0.0152889
697.092	0.0149754
697.170	0.0150619
697.248	0.0150546
697.326	0.0150426
697.405	0.0149058
697.483	0.0150211
697.561	0.0149342
697.639	0.0148360
697.717	0.0147491
697.795	0.0147441
697.873	0.0147653
697.951	0.0146923
698.030	0.0144329
698.108	0.0144141
698.186	0.0144481
698.264	0.0143804
698.342	0.0143909
698.420	0.0141738
698.498	0.0142480
698.576	0.0141724
698.655	0.0142287
698.733	0.0141752
698.811	0.0142028
698.889	0.0142544
698.967	0.0142159
699.045	0.0142485
699.123	0.0143192
699.201	0.0146204
699.280	0.0146040
699.358	0.0145103
699.436	0.0146368
699.514	0.0148605
699.592	0.0149600
699.670	0.0149052
699.748	0.0150405
699.826	0.0150424
699.905	0.0151387
699.983	0.0152431
700.061	0.0152881
700.139	0.0151462
700.217	0.0152094
700.295	0.0152625
700.373	0.0152831
700.451	0.0153725
700.530	0.0152611
700.608	0.0152731
700.686	0.0152195
700.764	0.0152224
700.842	0.0151633
700.920	0.0151620
700.998	0.0151443
701.076	0.0152609
701.155	0.0151136
701.233	0.0152460
701.311	0.0149730
701.389	0.0150168
701.467	0.0150777
701.545	0.0149905
701.623	0.0148446
701.701	0.0147012
701.780	0.0148692
701.858	0.0149146
701.936	0.0146988
702.014	0.0148003
702.092	0.0146831
702.170	0.0146664
702.248	0.0145827
702.326	0.0145132
702.405	0.0147353
702.483	0.0145561
702.561	0.0145257
702.639	0.0145748
702.717	0.0145766
702.795	0.0146434
702.873	0.0145114
702.951	0.0143993
703.030	0.0144302
703.108	0.0145237
703.186	0.0144956
703.264	0.0146759
703.342	0.0146471
703.420	0.0146862
703.498	0.0147095
703.576	0.0148020
703.655	0.0148573
703.733	0.0147529
703.811	0.0149667
703.889	0.0149287
703.967	0.0149710
704.045	0.0148054
704.123	0.0151138
704.201	0.0150716
704.280	0.0149627
704.358	0.0150101
704.436	0.0150741
704.514	0.0148729
704.592	0.0148515
704.670	0.0146472
704.748	0.0146091
704.826	0.0145968
704.905	0.0145727
704.983	0.0144422
705.061	0.0144625
705.139	0.0143800
705.217	0.0143210
705.295	0.0142783
705.373	0.0142873
705.451	0.0143451
705.530	0.0145029
705.608	0.0144269
705.686	0.0144707
705.764	0.0141644
705.842	0.0142011
705.920	0.0144357
705.998	0.0143506
706.076	0.0142897
706.155	0.0143055
706.233	0.0144373
706.311	0.0144476
706.389	0.0143850
706.467	0.0144470
706.545	0.0145388
706.623	0.0147018
706.701	0.0146860
706.780	0.0148844
706.858	0.0149766
706.936	0.0151083
707.014	0.0151516
707.092	0.0151767
707.170	0.0152451
707.248	0.0153011
707.326	0.0152429
707.405	0.0152432
707.483	0.0151859
707.561	0.0152945
707.639	0.0151765
707.717	0.0152075
707.795	0.0152335
707.873	0.0151205
707.951	0.0151248
708.030	0.0150658
708.108	0.0149939
708.186	0.0149565
708.264	0.0148730
708.342	0.0149059
708.420	0.0147166
708.498	0.0146434
708.576	0.0145119
708.655	0.0144827
708.733	0.0145639
708.811	0.0145174
708.889	0.0144379
708.967	0.0142686
709.045	0.0141119
709.123	0.0141458
709.201	0.0143860
709.280	0.0141591
709.358	0.0141080
709.436	0.0142068
709.514	0.0142643
709.592	0.0142777
709.670	0.0141782
709.748	0.0142610
709.826	0.0142553
709.905	0.0142533
709.983	0.0143169
710.061	0.0142719
710.139	0.0144158
710.217	0.0144439
710.295	0.0142105
710.373	0.0141112
710.451	0.0142307
710.530	0.0142532
710.608	0.0143309
710.686	0.0144170
710.764	0.0141462
710.842	0.0140887
710.920	0.0144579
710.998	0.0143219
711.076	0.0142697
711.155	0.0145208
711.233	0.0144299
711.311	0.0145730
711.389	0.0146594
711.467	0.0147159
711.545	0.0148415
711.623	0.0148884
711.701	0.0150607
711.780	0.0149727
711.858	0.0150269
711.936	0.0150148
712.014	0.0150587
712.092	0.0150849
712.170	0.0151676
712.248	0.0151172
712.326	0.0153420
712.405	0.0153674
712.483	0.0154334
712.561	0.0153391
712.639	0.0154248
712.717	0.0152669
712.795	0.0154987
712.873	0.0155650
712.951	0.0153293
713.030	0.0155262
713.108	0.0153521
713.186	0.0151117
713.264	0.0151252
713.342	0.0150070
713.420	0.0151361
713.498	0.0149181
713.576	0.0148211
713.655	0.0146384
713.733	0.0147420
713.811	0.0145715
713.889	0.0143908
713.967	0.0145690
714.045	0.0145807
714.123	0.0144006
714.201	0.0143253
714.280	0.0144047
714.358	0.0142697
714.436	0.0142277
714.514	0.0143194
714.592	0.0142712
714.670	0.0142668
714.748	0.0142587
714.826	0.0142402
714.905	0.0143159
714.983	0.0142254
715.061	0.0143336
715.139	0.0145327
715.217	0.0145647
715.295	0.0146848
715.373	0.0147488
715.451	0.0147471
715.530	0.0147713
715.608	0.0150918
715.686	0.0151708
715.764	0.0151432
715.842	0.0150921
715.920	0.0152767
715.998	0.0152371
716.076	0.0152079
716.155	0.0153192
716.233	0.0154246
716.311	0.0153516
716.389	0.0152955
716.467	0.0151759
716.545	0.0151195
716.623	0.0150427
716.701	0.0148727
716.780	0.0148122
716.858	0.0146655
716.936	0.0146455
717.014	0.0146545
717.092	0.0146604
717.170	0.0142997
717.248	0.0143361
717.326	0.0143670
717.405	0.0142867
717.483	0.0142641
717.561	0.0143729
717.639	0.0143314
717.717	0.0143127
717.795	0.0144122
717.873	0.0144959
717.951	0.0144504
718.030	0.0143445
718.108	0.0144881
718.186	0.0143904
718.264	0.0144596
718.342	0.0146482
718.420	0.0146252
718.498	0.0144256
718.576	0.0146061
718.655	0.0146308
718.733	0.0146970
718.811	0.0147248
718.889	0.0147106
718.967	0.0147818
719.045	0.0148420
719.123	0.0150625
719.201	0.0151454
719.280	0.0150649
719.358	0.0152909
719.436	0.0151382
719.514	0.0152727
719.592	0.0153288
719.670	0.0153500
719.748	0.0153077
719.826	0.0153952
719.905	0.0153848
719.983	0.0153207
720.061	0.0152129
720.139	0.0151383
720.217	0.0149535
720.295	0.0150105
720.373	0.0149111
720.451	0.0147688
720.530	0.0146948
720.608	0.0146036
720.686	0.0145743
720.764	0.0144518
720.842	0.0143699
720.920	0.0145325
720.998	0.0143716
721.076	0.0142506
721.155	0.0142657
721.233	0.0143775
721.311	0.0141327
721.389	0.0141495
721.467	0.0140907
721.545	0.0142804
721.623	0.0140775
721.701	0.0140800
721.780	0.0141760
721.858	0.0141358
721.936	0.0140448
722.014	0.0141831
722.092	0.0142510
722.170	0.0142989
722.248	0.0143629
722.326	0.0143863
722.405	0.0144266
722.483	0.0144781
722.561	0.0145418
722.639	0.0145255
722.717	0.0144283
722.795	0.0145580
722.873	0.0145126
722.951	0.0144370
723.030	0.0145407
723.108	0.0146465
723.186	0.0146809
723.264	0.0146077
723.342	0.0147124
723.420	0.0149830
723.498	0.0148859
723.576	0.0149931
723.655	0.0150381
723.733	0.0150974
723.811	0.0151420
723.889	0.0153033
723.967	0.0152247
724.045	0.0151241
724.123	0.0151505
724.201	0.0150460
724.280	0.0151078
724.358	0.0151834
724.436	0.0151022
724.514	0.0149685
724.592	0.0150181
724.670	0.0149161
724.748	0.0149153
724.826	0.0148589
724.905	0.0148218
724.983	0.0148374
725.061	0.0147566
725.139	0.0145649
725.217	0.0145815
725.295	0.0146168
725.373	0.0145368
725.451	0.0143818
725.530	0.0145363
725.608	0.0145460
725.686	0.0145818
