05/20/2022	16:05:26	Ver.	4.1	UNKNOWN
Optical Delay	639.989416	Delta X		0.078125	Sweeps	1	Scan Rate	0/0
Coordinates	Axis 1	NaN	Axis 2	NaN	Axis 3	NaN	Axis 4	NaN	Axis 5	NaN	Axis 6	0.000000
TX Power	0.000000	RX Power	0.000000

639.989	0.0148490
640.068	0.0147503
640.146	0.0150536
640.224	0.0147601
640.302	0.0149264
640.380	0.0149883
640.458	0.0148908
640.536	0.0148544
640.614	0.0148137
640.693	0.0148014
640.771	0.0148634
640.849	0.0147615
640.927	0.0147725
641.005	0.0148198
641.083	0.0147726
641.161	0.0148879
641.239	0.0147511
641.318	0.0148907
641.396	0.0148022
641.474	0.0145950
641.552	0.0148512
641.630	0.0148837
641.708	0.0148756
641.786	0.0148260
641.864	0.0147875
641.943	0.0149101
642.021	0.0149173
642.099	0.0148891
642.177	0.0149210
642.255	0.0149043
642.333	0.0148833
642.411	0.0148048
642.489	0.0148241
642.568	0.0148737
642.646	0.0147626
642.724	0.0147829
642.802	0.0148775
642.880	0.0147747
642.958	0.0148166
643.036	0.0148042
643.114	0.0148210
643.193	0.0147608
643.271	0.0147771
643.349	0.0148920
643.427	0.0149538
643.505	0.0148811
643.583	0.0147640
643.661	0.0147639
643.739	0.0148832
643.818	0.0148476
643.896	0.0147962
643.974	0.0147756
644.052	0.0148131
644.130	0.0148916
644.208	0.0148106
644.286	0.0149097
644.364	0.0148716
644.443	0.0147734
644.521	0.0147279
644.599	0.0146569
644.677	0.0147848
644.755	0.0148814
644.833	0.0148477
644.911	0.0149970
644.989	0.0149724
645.068	0.0148199
645.146	0.0147329
645.224	0.0149282
645.302	0.0149121
645.380	0.0148731
645.458	0.0148714
645.536	0.0149706
645.614	0.0148362
645.693	0.0148173
645.771	0.0149142
645.849	0.0149111
645.927	0.0148174
646.005	0.0148570
646.083	0.0148047
646.161	0.0148907
646.239	0.0148650
646.318	0.0150215
646.396	0.0148560
646.474	0.0147694
646.552	0.0148862
646.630	0.0148200
646.708	0.0148135
646.786	0.0148698
646.864	0.0147947
646.943	0.0147822
647.021	0.0147501
647.099	0.0149031
647.177	0.0149435
647.255	0.0148300
647.333	0.0147694
647.411	0.0147487
647.489	0.0148373
647.568	0.0148903
647.646	0.0149044
647.724	0.0148653
647.802	0.0148705
647.880	0.0148264
647.958	0.0147428
648.036	0.0148579
648.114	0.0148052
648.193	0.0148748
648.271	0.0148039
648.349	0.0149810
648.427	0.0147623
648.505	0.0148389
648.583	0.0148522
648.661	0.0148454
648.739	0.0148525
648.818	0.0146915
648.896	0.0147978
648.974	0.0148437
649.052	0.0148172
649.130	0.0149239
649.208	0.0147854
649.286	0.0148136
649.364	0.0148302
649.443	0.0149268
649.521	0.0148360
649.599	0.0148546
649.677	0.0148672
649.755	0.0147698
649.833	0.0147303
649.911	0.0147888
649.989	0.0147594
650.068	0.0148048
650.146	0.0148587
650.224	0.0148723
650.302	0.0149237
650.380	0.0149174
650.458	0.0149497
650.536	0.0148304
650.614	0.0147968
650.693	0.0147308
650.771	0.0147192
650.849	0.0148215
650.927	0.0149425
651.005	0.0148055
651.083	0.0146907
651.161	0.0148166
651.239	0.0149420
651.318	0.0148074
651.396	0.0148952
651.474	0.0149830
651.552	0.0149220
651.630	0.0148492
651.708	0.0147231
651.786	0.0149193
651.864	0.0148251
651.943	0.0147514
652.021	0.0147301
652.099	0.0147992
652.177	0.0148203
652.255	0.0148908
652.333	0.0148214
652.411	0.0148280
652.489	0.0147004
652.568	0.0148090
652.646	0.0147906
652.724	0.0148882
652.802	0.0149606
652.880	0.0148653
652.958	0.0148166
653.036	0.0148505
653.114	0.0148697
653.193	0.0147483
653.271	0.0148629
653.349	0.0148026
653.427	0.0148716
653.505	0.0147543
653.583	0.0147954
653.661	0.0148163
653.739	0.0148836
653.818	0.0147464
653.896	0.0149400
653.974	0.0149097
654.052	0.0148446
654.130	0.0148064
654.208	0.0148531
654.286	0.0148013
654.364	0.0147755
654.443	0.0148722
654.521	0.0148995
654.599	0.0149313
654.677	0.0148632
654.755	0.0148777
654.833	0.0147577
654.911	0.0148024
654.989	0.0148705
655.068	0.0148410
655.146	0.0148660
655.224	0.0147357
655.302	0.0147770
655.380	0.0148628
655.458	0.0148217
655.536	0.0148078
655.614	0.0148360
655.693	0.0148979
655.771	0.0148320
655.849	0.0148811
655.927	0.0148442
656.005	0.0147311
656.083	0.0148441
656.161	0.0149355
656.239	0.0148061
656.318	0.0148391
656.396	0.0148309
656.474	0.0148081
656.552	0.0148594
656.630	0.0148363
656.708	0.0149333
656.786	0.0148917
656.864	0.0147873
656.943	0.0147436
657.021	0.0147427
657.099	0.0148905
657.177	0.0149728
657.255	0.0148109
657.333	0.0148065
657.411	0.0147741
657.489	0.0148593
657.568	0.0149211
657.646	0.0147457
657.724	0.0148776
657.802	0.0148745
657.880	0.0146779
657.958	0.0147997
658.036	0.0148527
658.114	0.0149089
658.193	0.0148117
658.271	0.0148573
658.349	0.0148528
658.427	0.0148326
658.505	0.0148159
658.583	0.0148209
658.661	0.0147845
658.739	0.0147683
658.818	0.0148795
658.896	0.0148095
658.974	0.0148626
659.052	0.0148007
659.130	0.0148699
659.208	0.0149214
659.286	0.0147183
659.364	0.0147398
659.443	0.0149150
659.521	0.0148637
659.599	0.0149280
659.677	0.0149026
659.755	0.0147649
659.833	0.0148392
659.911	0.0148297
659.989	0.0148637
660.068	0.0149708
660.146	0.0148751
660.224	0.0149068
660.302	0.0148129
660.380	0.0148496
660.458	0.0148938
660.536	0.0149187
660.614	0.0148763
660.693	0.0149602
660.771	0.0147719
660.849	0.0148692
660.927	0.0148061
661.005	0.0148321
661.083	0.0148390
661.161	0.0148647
661.239	0.0148011
661.318	0.0148602
661.396	0.0148200
661.474	0.0147758
661.552	0.0146863
661.630	0.0147600
661.708	0.0148511
661.786	0.0148775
661.864	0.0148853
661.943	0.0147583
662.021	0.0146901
662.099	0.0148705
662.177	0.0148486
662.255	0.0147872
662.333	0.0147865
662.411	0.0148432
662.489	0.0149548
662.568	0.0146838
662.646	0.0148149
662.724	0.0148196
662.802	0.0148063
662.880	0.0148943
662.958	0.0148766
663.036	0.0146207
663.114	0.0149412
663.193	0.0149445
663.271	0.0148195
663.349	0.0147617
663.427	0.0147035
663.505	0.0148774
663.583	0.0148391
663.661	0.0147823
663.739	0.0148704
663.818	0.0148602
663.896	0.0149464
663.974	0.0148784
664.052	0.0147604
664.130	0.0148118
664.208	0.0146998
664.286	0.0146791
664.364	0.0148223
664.443	0.0148824
664.521	0.0148705
664.599	0.0148171
664.677	0.0148198
664.755	0.0148250
664.833	0.0148167
664.911	0.0147662
664.989	0.0148152
665.068	0.0148338
665.146	0.0148492
665.224	0.0149018
665.302	0.0148985
665.380	0.0148742
665.458	0.0148169
665.536	0.0148067
665.614	0.0148334
665.693	0.0147470
665.771	0.0149819
665.849	0.0149068
665.927	0.0148002
666.005	0.0148294
666.083	0.0148650
666.161	0.0147816
666.239	0.0147408
666.318	0.0148592
666.396	0.0150220
666.474	0.0149253
666.552	0.0148557
666.630	0.0148186
666.708	0.0148395
666.786	0.0148218
666.864	0.0147411
666.943	0.0148050
667.021	0.0147617
667.099	0.0146436
667.177	0.0147390
667.255	0.0149203
667.333	0.0148750
667.411	0.0146886
667.489	0.0148773
667.568	0.0148186
667.646	0.0148629
667.724	0.0145988
667.802	0.0147453
667.880	0.0147213
667.958	0.0147816
668.036	0.0147510
668.114	0.0147700
668.193	0.0147646
668.271	0.0147180
668.349	0.0147311
668.427	0.0147755
668.505	0.0147527
668.583	0.0146906
668.661	0.0147448
668.739	0.0147885
668.818	0.0148560
668.896	0.0147008
668.974	0.0147520
669.052	0.0148667
669.130	0.0146029
669.208	0.0147045
669.286	0.0146400
669.364	0.0148526
669.443	0.0148097
669.521	0.0146935
669.599	0.0147576
669.677	0.0147504
669.755	0.0147061
669.833	0.0147734
669.911	0.0147663
669.989	0.0147277
670.068	0.0148015
670.146	0.0147000
670.224	0.0148727
670.302	0.0147477
670.380	0.0147486
670.458	0.0147234
670.536	0.0147362
670.614	0.0147524
670.693	0.0149869
670.771	0.0148315
670.849	0.0148442
670.927	0.0147392
671.005	0.0148077
671.083	0.0147842
671.161	0.0147323
671.239	0.0147827
671.318	0.0146782
671.396	0.0147112
671.474	0.0147259
671.552	0.0147764
671.630	0.0148312
671.708	0.0147556
671.786	0.0147367
671.864	0.0147370
671.943	0.0148493
672.021	0.0146888
672.099	0.0147606
672.177	0.0148846
672.255	0.0148198
672.333	0.0147427
672.411	0.0148060
672.489	0.0148076
672.568	0.0148386
672.646	0.0147253
672.724	0.0148382
672.802	0.0149277
672.880	0.0149352
672.958	0.0147792
673.036	0.0149593
673.114	0.0148445
673.193	0.0147844
673.271	0.0148887
673.349	0.0148186
673.427	0.0148521
673.505	0.0148997
673.583	0.0149091
673.661	0.0148595
673.739	0.0149603
673.818	0.0149484
673.896	0.0148592
673.974	0.0148847
674.052	0.0147599
674.130	0.0147993
674.208	0.0149790
674.286	0.0151192
674.364	0.0149142
674.443	0.0147378
674.521	0.0148810
674.599	0.0149655
674.677	0.0148783
674.755	0.0149235
674.833	0.0150069
674.911	0.0148085
674.989	0.0148399
675.068	0.0150184
675.146	0.0148506
675.224	0.0149302
675.302	0.0151504
675.380	0.0149884
675.458	0.0148091
675.536	0.0148759
675.614	0.0150191
675.693	0.0150148
675.771	0.0149800
675.849	0.0148983
675.927	0.0149122
676.005	0.0149270
676.083	0.0149651
676.161	0.0149039
676.239	0.0149187
676.318	0.0148697
676.396	0.0150424
676.474	0.0150341
676.552	0.0149255
676.630	0.0148330
676.708	0.0149616
676.786	0.0149771
676.864	0.0148406
676.943	0.0149871
677.021	0.0149643
677.099	0.0149691
677.177	0.0149871
677.255	0.0149904
677.333	0.0150333
677.411	0.0150228
677.489	0.0149558
677.568	0.0149060
677.646	0.0150308
677.724	0.0150042
677.802	0.0149360
677.880	0.0148816
677.958	0.0148710
678.036	0.0149538
678.114	0.0148225
678.193	0.0148124
678.271	0.0148605
678.349	0.0148754
678.427	0.0147472
678.505	0.0148436
678.583	0.0150060
678.661	0.0147733
678.739	0.0148828
678.818	0.0148386
678.896	0.0147550
678.974	0.0148226
679.052	0.0147682
679.130	0.0149107
679.208	0.0148959
679.286	0.0148701
679.364	0.0148769
679.443	0.0148421
679.521	0.0149020
679.599	0.0147380
679.677	0.0149566
679.755	0.0147919
679.833	0.0147549
679.911	0.0148820
679.989	0.0147961
680.068	0.0148750
680.146	0.0148463
680.224	0.0148708
680.302	0.0147830
680.380	0.0148376
680.458	0.0147358
680.536	0.0146662
680.614	0.0150154
680.693	0.0147815
680.771	0.0145557
680.849	0.0145767
680.927	0.0148003
681.005	0.0147659
681.083	0.0146268
681.161	0.0147519
681.239	0.0147741
681.318	0.0146999
681.396	0.0147460
681.474	0.0147594
681.552	0.0146744
681.630	0.0147587
681.708	0.0146927
681.786	0.0146320
681.864	0.0146980
681.943	0.0147192
682.021	0.0147137
682.099	0.0147485
682.177	0.0148229
682.255	0.0147924
682.333	0.0147290
682.411	0.0146761
682.489	0.0147721
682.568	0.0148560
682.646	0.0147627
682.724	0.0146707
682.802	0.0148031
682.880	0.0148098
682.958	0.0147456
683.036	0.0148127
683.114	0.0148878
683.193	0.0146744
683.271	0.0147102
683.349	0.0147664
683.427	0.0145906
683.505	0.0148116
683.583	0.0147478
683.661	0.0147768
683.739	0.0147699
683.818	0.0148292
683.896	0.0148718
683.974	0.0148123
684.052	0.0146935
684.130	0.0149815
684.208	0.0148741
684.286	0.0148185
684.364	0.0148993
684.443	0.0148193
684.521	0.0148191
684.599	0.0149867
684.677	0.0148309
684.755	0.0149493
684.833	0.0149042
684.911	0.0148962
684.989	0.0148762
685.068	0.0148676
685.146	0.0148625
685.224	0.0149203
685.302	0.0148007
685.380	0.0148701
685.458	0.0149023
685.536	0.0148328
685.614	0.0149287
685.693	0.0149343
685.771	0.0149117
685.849	0.0148872
685.927	0.0149048
686.005	0.0148905
686.083	0.0149558
686.161	0.0147021
686.239	0.0146550
686.318	0.0148663
686.396	0.0149165
686.474	0.0149022
686.552	0.0149558
686.630	0.0149019
686.708	0.0149640
686.786	0.0149115
686.864	0.0148134
686.943	0.0147215
687.021	0.0147746
687.099	0.0149107
687.177	0.0147705
687.255	0.0147919
687.333	0.0148144
687.411	0.0150405
687.489	0.0149456
687.568	0.0147497
687.646	0.0148164
687.724	0.0149111
687.802	0.0149522
687.880	0.0147601
687.958	0.0150111
688.036	0.0149528
688.114	0.0150230
688.193	0.0148462
688.271	0.0148026
688.349	0.0148649
688.427	0.0146318
688.505	0.0146278
688.583	0.0145381
688.661	0.0143529
688.739	0.0141772
688.818	0.0142085
688.896	0.0139410
688.974	0.0143734
689.052	0.0144952
689.130	0.0148770
689.208	0.0151613
689.286	0.0156200
689.364	0.0160439
689.443	0.0162839
689.521	0.0166319
689.599	0.0168580
689.677	0.0168539
689.755	0.0165545
689.833	0.0163571
689.911	0.0158533
689.989	0.0151202
690.068	0.0141980
690.146	0.0132570
690.224	0.0123740
690.302	0.0117210
690.380	0.0111597
690.458	0.0107319
690.536	0.0108545
690.614	0.0109029
690.693	0.0115629
690.771	0.0124225
690.849	0.0136002
690.927	0.0147539
691.005	0.0160973
691.083	0.0171037
691.161	0.0184162
691.239	0.0193860
691.318	0.0202306
691.396	0.0206571
691.474	0.0208276
691.552	0.0205747
691.630	0.0202297
691.708	0.0194672
691.786	0.0183904
691.864	0.0171058
691.943	0.0157054
692.021	0.0143405
692.099	0.0128529
692.177	0.0113272
692.255	0.0100488
692.333	0.00878021
692.411	0.00812431
692.489	0.00733116
692.568	0.00713280
692.646	0.00696327
692.724	0.00748070
692.802	0.00834885
692.880	0.00927834
692.958	0.0107501
693.036	0.0123839
693.114	0.0141371
693.193	0.0159389
693.271	0.0176215
693.349	0.0193064
693.427	0.0207806
693.505	0.0220443
693.583	0.0227563
693.661	0.0232811
693.739	0.0233714
693.818	0.0231590
693.896	0.0224292
693.974	0.0215521
694.052	0.0204911
694.130	0.0190660
694.208	0.0176633
694.286	0.0163197
694.364	0.0147485
694.443	0.0133342
694.521	0.0121832
694.599	0.0109879
694.677	0.00983955
694.755	0.00932877
694.833	0.00871719
694.911	0.00821732
694.989	0.00819489
695.068	0.00816589
695.146	0.00847206
695.224	0.00916473
695.302	0.00985115
695.380	0.0104442
695.458	0.0114568
695.536	0.0125496
695.614	0.0134522
695.693	0.0145538
695.771	0.0155265
695.849	0.0165056
695.927	0.0170993
696.005	0.0177798
696.083	0.0183839
696.161	0.0189772
696.239	0.0192880
696.318	0.0192975
696.396	0.0194729
696.474	0.0193697
696.552	0.0189864
696.630	0.0186712
696.708	0.0180866
696.786	0.0175648
696.864	0.0169770
696.943	0.0162864
697.021	0.0155900
697.099	0.0151647
697.177	0.0145344
697.255	0.0140318
697.333	0.0138406
697.411	0.0135033
697.489	0.0132597
697.568	0.0130877
697.646	0.0129044
697.724	0.0129900
697.802	0.0129667
697.880	0.0128825
697.958	0.0130065
698.036	0.0130524
698.114	0.0131153
698.193	0.0132954
698.271	0.0134976
698.349	0.0138204
698.427	0.0138484
698.505	0.0141741
698.583	0.0144582
698.661	0.0146526
698.739	0.0148199
698.818	0.0150941
698.896	0.0151842
698.974	0.0152393
699.052	0.0153071
699.130	0.0154738
699.208	0.0154699
699.286	0.0153848
699.364	0.0154165
699.443	0.0151993
699.521	0.0151888
699.599	0.0150925
699.677	0.0149545
699.755	0.0148710
699.833	0.0147434
699.911	0.0146635
699.989	0.0146769
700.068	0.0146582
700.146	0.0145603
700.224	0.0147510
700.302	0.0147330
700.380	0.0146641
700.458	0.0146196
700.536	0.0145846
700.614	0.0147028
700.693	0.0148064
700.771	0.0148340
700.849	0.0149572
700.927	0.0148500
701.005	0.0150394
701.083	0.0154085
701.161	0.0153970
701.239	0.0154823
701.318	0.0154945
701.396	0.0157111
701.474	0.0158706
701.552	0.0161137
701.630	0.0161861
701.708	0.0160487
701.786	0.0160654
701.864	0.0159935
701.943	0.0159110
702.021	0.0158047
702.099	0.0156618
702.177	0.0154050
702.255	0.0151286
702.333	0.0149496
702.411	0.0147696
702.489	0.0144937
702.568	0.0142099
702.646	0.0140604
702.724	0.0138747
702.802	0.0136438
702.880	0.0135116
702.958	0.0134417
703.036	0.0133786
703.114	0.0134566
703.193	0.0133289
703.271	0.0134015
703.349	0.0134754
703.427	0.0136064
703.505	0.0137657
703.583	0.0138828
703.661	0.0140051
703.739	0.0141412
703.818	0.0143385
703.896	0.0145306
703.974	0.0144938
704.052	0.0149147
704.130	0.0151896
704.208	0.0152106
704.286	0.0156411
704.364	0.0158418
704.443	0.0160143
704.521	0.0159647
704.599	0.0162279
704.677	0.0163598
704.755	0.0163530
704.833	0.0164677
704.911	0.0163634
704.989	0.0160306
705.068	0.0160106
705.146	0.0157222
705.224	0.0156101
705.302	0.0154388
705.380	0.0151828
705.458	0.0149809
705.536	0.0147710
705.614	0.0147414
705.693	0.0144396
705.771	0.0143288
705.849	0.0143558
705.927	0.0142050
706.005	0.0140862
706.083	0.0141409
706.161	0.0140681
706.239	0.0140062
706.318	0.0141555
706.396	0.0140724
706.474	0.0141685
706.552	0.0142226
706.630	0.0144582
706.708	0.0145412
706.786	0.0144756
706.864	0.0146082
706.943	0.0147558
707.021	0.0149954
707.099	0.0149784
707.177	0.0150091
707.255	0.0150162
707.333	0.0150383
707.411	0.0151650
707.489	0.0150861
707.568	0.0148586
707.646	0.0147870
707.724	0.0147205
707.802	0.0147232
707.880	0.0145866
707.958	0.0145696
708.036	0.0143889
708.114	0.0143244
708.193	0.0143812
708.271	0.0143932
708.349	0.0143546
708.427	0.0145875
708.505	0.0147048
708.583	0.0147514
708.661	0.0149369
708.739	0.0152597
708.818	0.0152786
708.896	0.0153596
708.974	0.0154263
709.052	0.0154635
709.130	0.0153514
709.208	0.0154898
709.286	0.0153868
709.364	0.0152007
709.443	0.0152339
709.521	0.0150334
709.599	0.0149076
709.677	0.0149957
709.755	0.0148444
709.833	0.0147099
709.911	0.0146362
709.989	0.0147683
710.068	0.0146143
710.146	0.0145470
710.224	0.0145982
710.302	0.0146303
710.380	0.0144507
710.458	0.0145303
710.536	0.0144292
710.614	0.0144895
710.693	0.0145258
710.771	0.0145435
710.849	0.0144659
710.927	0.0145600
711.005	0.0145335
711.083	0.0147055
711.161	0.0148497
711.239	0.0148694
711.318	0.0149104
711.396	0.0149348
711.474	0.0150742
711.552	0.0151229
711.630	0.0151812
711.708	0.0152852
711.786	0.0153847
711.864	0.0153840
711.943	0.0154106
712.021	0.0153669
712.099	0.0154514
712.177	0.0153002
712.255	0.0151661
712.333	0.0152066
712.411	0.0152219
712.489	0.0149749
712.568	0.0148780
712.646	0.0146568
712.724	0.0146944
712.802	0.0146097
712.880	0.0146964
712.958	0.0145904
713.036	0.0145278
713.114	0.0145116
713.193	0.0144713
713.271	0.0146561
713.349	0.0146732
713.427	0.0146944
713.505	0.0148679
713.583	0.0149239
713.661	0.0151171
713.739	0.0152542
713.818	0.0151337
713.896	0.0151012
713.974	0.0152464
714.052	0.0152728
714.130	0.0151994
714.208	0.0149957
714.286	0.0149092
714.364	0.0148873
714.443	0.0149464
714.521	0.0146505
714.599	0.0145874
714.677	0.0142625
714.755	0.0142862
714.833	0.0143784
714.911	0.0143480
714.989	0.0142344
715.068	0.0142005
715.146	0.0141960
715.224	0.0143312
715.302	0.0146873
715.380	0.0146427
715.458	0.0147102
715.536	0.0148141
715.614	0.0150291
715.693	0.0150359
715.771	0.0151923
715.849	0.0152832
715.927	0.0152825
716.005	0.0153534
716.083	0.0153418
716.161	0.0153130
716.239	0.0153596
716.318	0.0154254
716.396	0.0151405
716.474	0.0153110
716.552	0.0149878
716.630	0.0150133
716.708	0.0149377
716.786	0.0147511
716.864	0.0147752
716.943	0.0147674
717.021	0.0146828
717.099	0.0145135
717.177	0.0144796
717.255	0.0145134
717.333	0.0146204
717.411	0.0147852
717.489	0.0147888
717.568	0.0146685
717.646	0.0147693
717.724	0.0148203
717.802	0.0149624
717.880	0.0148852
717.958	0.0149332
718.036	0.0149886
718.114	0.0149711
718.193	0.0150985
718.271	0.0150517
718.349	0.0150645
718.427	0.0150124
718.505	0.0151817
718.583	0.0151273
718.661	0.0150129
718.739	0.0150698
718.818	0.0150624
718.896	0.0149937
718.974	0.0150092
719.052	0.0149223
719.130	0.0148758
719.208	0.0148721
719.286	0.0150505
719.364	0.0148345
719.443	0.0146770
719.521	0.0146961
719.599	0.0145673
719.677	0.0143855
719.755	0.0143219
719.833	0.0142612
719.911	0.0140625
719.989	0.0140481
720.068	0.0139733
720.146	0.0139848
720.224	0.0138811
720.302	0.0139589
720.380	0.0140224
720.458	0.0141766
720.536	0.0142368
720.614	0.0143259
720.693	0.0145971
720.771	0.0148285
720.849	0.0148606
720.927	0.0149067
721.005	0.0151774
721.083	0.0152768
721.161	0.0154443
721.239	0.0153593
721.318	0.0156179
721.396	0.0155550
721.474	0.0154804
721.552	0.0154517
721.630	0.0155595
721.708	0.0155784
721.786	0.0154091
721.864	0.0153624
721.943	0.0151415
722.021	0.0150924
722.099	0.0150211
722.177	0.0148638
722.255	0.0150105
722.333	0.0150222
722.411	0.0148159
722.489	0.0147837
722.568	0.0145610
722.646	0.0146011
722.724	0.0147442
722.802	0.0146382
722.880	0.0146050
722.958	0.0147324
723.036	0.0147459
723.114	0.0148515
723.193	0.0147453
723.271	0.0147976
723.349	0.0148589
723.427	0.0149362
723.505	0.0148320
723.583	0.0146998
723.661	0.0148077
723.739	0.0147953
723.818	0.0147876
723.896	0.0147672
723.974	0.0147816
724.052	0.0147226
724.130	0.0147490
724.208	0.0147680
724.286	0.0148801
724.364	0.0147653
724.443	0.0149429
724.521	0.0151302
724.599	0.0149673
724.677	0.0149866
724.755	0.0151200
724.833	0.0150720
724.911	0.0151137
724.989	0.0150607
725.068	0.0149836
725.146	0.0148525
725.224	0.0150152
725.302	0.0147625
725.380	0.0148264
725.458	0.0147327
725.536	0.0145988
725.614	0.0146257
