05/20/2022	17:14:29	Ver.	4.1	UNKNOWN
Optical Delay	639.982744	Delta X		0.078125	Sweeps	1	Scan Rate	0/0
Coordinates	Axis 1	NaN	Axis 2	NaN	Axis 3	NaN	Axis 4	NaN	Axis 5	NaN	Axis 6	0.000000
TX Power	0.000000	RX Power	0.000000

639.983	0.0145009
640.061	0.0143856
640.139	0.0146268
640.217	0.0145600
640.295	0.0144476
640.373	0.0145465
640.451	0.0146615
640.530	0.0145257
640.608	0.0144645
640.686	0.0144561
640.764	0.0146194
640.842	0.0146794
640.920	0.0144791
640.998	0.0144637
641.076	0.0145097
641.155	0.0146674
641.233	0.0146095
641.311	0.0146558
641.389	0.0145439
641.467	0.0145986
641.545	0.0145077
641.623	0.0144151
641.701	0.0144418
641.780	0.0145659
641.858	0.0145902
641.936	0.0145474
642.014	0.0144840
642.092	0.0145907
642.170	0.0145933
642.248	0.0147356
642.326	0.0146545
642.405	0.0145347
642.483	0.0146111
642.561	0.0145749
642.639	0.0145183
642.717	0.0145480
642.795	0.0146611
642.873	0.0145096
642.951	0.0145060
643.030	0.0144997
643.108	0.0145661
643.186	0.0144323
643.264	0.0144786
643.342	0.0144489
643.420	0.0144751
643.498	0.0144685
643.576	0.0144659
643.655	0.0145451
643.733	0.0143568
643.811	0.0143502
643.889	0.0143879
643.967	0.0144852
644.045	0.0144955
644.123	0.0145372
644.201	0.0144703
644.280	0.0144923
644.358	0.0144375
644.436	0.0144872
644.514	0.0145760
644.592	0.0144478
644.670	0.0145961
644.748	0.0143736
644.826	0.0145222
644.905	0.0145048
644.983	0.0146794
645.061	0.0145156
645.139	0.0145126
645.217	0.0145238
645.295	0.0145598
645.373	0.0144138
645.451	0.0143230
645.530	0.0144411
645.608	0.0144315
645.686	0.0143604
645.764	0.0145159
645.842	0.0144842
645.920	0.0144997
645.998	0.0146140
646.076	0.0146641
646.155	0.0145081
646.233	0.0144577
646.311	0.0144155
646.389	0.0145612
646.467	0.0145464
646.545	0.0145477
646.623	0.0146226
646.701	0.0144875
646.780	0.0145604
646.858	0.0146083
646.936	0.0145290
647.014	0.0145799
647.092	0.0146729
647.170	0.0144763
647.248	0.0145702
647.326	0.0146075
647.405	0.0145619
647.483	0.0146861
647.561	0.0145428
647.639	0.0145706
647.717	0.0145326
647.795	0.0144491
647.873	0.0145702
647.951	0.0144164
648.030	0.0143764
648.108	0.0145506
648.186	0.0145114
648.264	0.0143625
648.342	0.0145326
648.420	0.0144534
648.498	0.0144386
648.576	0.0144807
648.655	0.0144345
648.733	0.0144008
648.811	0.0143880
648.889	0.0144531
648.967	0.0143581
649.045	0.0144099
649.123	0.0143233
649.201	0.0144248
649.280	0.0146452
649.358	0.0144462
649.436	0.0143900
649.514	0.0144273
649.592	0.0146247
649.670	0.0145540
649.748	0.0146774
649.826	0.0145678
649.905	0.0146867
649.983	0.0146294
650.061	0.0147085
650.139	0.0146062
650.217	0.0146013
650.295	0.0146444
650.373	0.0146152
650.451	0.0145962
650.530	0.0144885
650.608	0.0146043
650.686	0.0144275
650.764	0.0143942
650.842	0.0144816
650.920	0.0144879
650.998	0.0145006
651.076	0.0144445
651.155	0.0144894
651.233	0.0144772
651.311	0.0144969
651.389	0.0144001
651.467	0.0145427
651.545	0.0145670
651.623	0.0143900
651.701	0.0143531
651.780	0.0144281
651.858	0.0145263
651.936	0.0144585
652.014	0.0144567
652.092	0.0144357
652.170	0.0144520
652.248	0.0144700
652.326	0.0145744
652.405	0.0146622
652.483	0.0145419
652.561	0.0145176
652.639	0.0147273
652.717	0.0146922
652.795	0.0147551
652.873	0.0147171
652.951	0.0148300
653.030	0.0147945
653.108	0.0146497
653.186	0.0147765
653.264	0.0148143
653.342	0.0146674
653.420	0.0147720
653.498	0.0146523
653.576	0.0146505
653.655	0.0147116
653.733	0.0145150
653.811	0.0144578
653.889	0.0145183
653.967	0.0145401
654.045	0.0145313
654.123	0.0144873
654.201	0.0143256
654.280	0.0145120
654.358	0.0142889
654.436	0.0144354
654.514	0.0144968
654.592	0.0143510
654.670	0.0144901
654.748	0.0145200
654.826	0.0145999
654.905	0.0146465
654.983	0.0145248
655.061	0.0145785
655.139	0.0148594
655.217	0.0147675
655.295	0.0146836
655.373	0.0145171
655.451	0.0146978
655.530	0.0146859
655.608	0.0146643
655.686	0.0146024
655.764	0.0146255
655.842	0.0144865
655.920	0.0145455
655.998	0.0146286
656.076	0.0145022
656.155	0.0146263
656.233	0.0145246
656.311	0.0144196
656.389	0.0144112
656.467	0.0143652
656.545	0.0144534
656.623	0.0144260
656.701	0.0144823
656.780	0.0143240
656.858	0.0144225
656.936	0.0145807
657.014	0.0144392
657.092	0.0143634
657.170	0.0144138
657.248	0.0144592
657.326	0.0145767
657.405	0.0146518
657.483	0.0146703
657.561	0.0146372
657.639	0.0146652
657.717	0.0147391
657.795	0.0147409
657.873	0.0146689
657.951	0.0145876
658.030	0.0145319
658.108	0.0146277
658.186	0.0146225
658.264	0.0145623
658.342	0.0146468
658.420	0.0145650
658.498	0.0144562
658.576	0.0143972
658.655	0.0143542
658.733	0.0144350
658.811	0.0143337
658.889	0.0143666
658.967	0.0142879
659.045	0.0142945
659.123	0.0143678
659.201	0.0144347
659.280	0.0144386
659.358	0.0144122
659.436	0.0144162
659.514	0.0144022
659.592	0.0143248
659.670	0.0144658
659.748	0.0144733
659.826	0.0145009
659.905	0.0145613
659.983	0.0144881
660.061	0.0145625
660.139	0.0143717
660.217	0.0144594
660.295	0.0145097
660.373	0.0144686
660.451	0.0145978
660.530	0.0144099
660.608	0.0145335
660.686	0.0144581
660.764	0.0144958
660.842	0.0144676
660.920	0.0145337
660.998	0.0144465
661.076	0.0143075
661.155	0.0141477
661.233	0.0142863
661.311	0.0142213
661.389	0.0140870
661.467	0.0142256
661.545	0.0142188
661.623	0.0142530
661.701	0.0142800
661.780	0.0141779
661.858	0.0141779
661.936	0.0141678
662.014	0.0142037
662.092	0.0141815
662.170	0.0142682
662.248	0.0143772
662.326	0.0142294
662.405	0.0143217
662.483	0.0142606
662.561	0.0142657
662.639	0.0143475
662.717	0.0142953
662.795	0.0143369
662.873	0.0144366
662.951	0.0145102
663.030	0.0145328
663.108	0.0145612
663.186	0.0145483
663.264	0.0146266
663.342	0.0146408
663.420	0.0146808
663.498	0.0146519
663.576	0.0145967
663.655	0.0145107
663.733	0.0146810
663.811	0.0146938
663.889	0.0146624
663.967	0.0147343
664.045	0.0147043
664.123	0.0148188
664.201	0.0148077
664.280	0.0149771
664.358	0.0149673
664.436	0.0149761
664.514	0.0150208
664.592	0.0149295
664.670	0.0150546
664.748	0.0151035
664.826	0.0151291
664.905	0.0150599
664.983	0.0152505
665.061	0.0151894
665.139	0.0151176
665.217	0.0150716
665.295	0.0149380
665.373	0.0148820
665.451	0.0151366
665.530	0.0149841
665.608	0.0148209
665.686	0.0148917
665.764	0.0148006
665.842	0.0146944
665.920	0.0145231
665.998	0.0146276
666.076	0.0144844
666.155	0.0145531
666.233	0.0144107
666.311	0.0141525
666.389	0.0140775
666.467	0.0140079
666.545	0.0140166
666.623	0.0139696
666.701	0.0138237
666.780	0.0139767
666.858	0.0138867
666.936	0.0136936
667.014	0.0137831
667.092	0.0139608
667.170	0.0139337
667.248	0.0138729
667.326	0.0139697
667.405	0.0140261
667.483	0.0140773
667.561	0.0141276
667.639	0.0141857
667.717	0.0143113
667.795	0.0142969
667.873	0.0144141
667.951	0.0146524
668.030	0.0148163
668.108	0.0149837
668.186	0.0150179
668.264	0.0150283
668.342	0.0151089
668.420	0.0151014
668.498	0.0152940
668.576	0.0153490
668.655	0.0153004
668.733	0.0153748
668.811	0.0153615
668.889	0.0153662
668.967	0.0152106
669.045	0.0151926
669.123	0.0152464
669.201	0.0152517
669.280	0.0152145
669.358	0.0150845
669.436	0.0150935
669.514	0.0150898
669.592	0.0152319
669.670	0.0151553
669.748	0.0150446
669.826	0.0150525
669.905	0.0150559
669.983	0.0148144
670.061	0.0148205
670.139	0.0147915
670.217	0.0145579
670.295	0.0144582
670.373	0.0144423
670.451	0.0144792
670.530	0.0143731
670.608	0.0142209
670.686	0.0140908
670.764	0.0140539
670.842	0.0142307
670.920	0.0140359
670.998	0.0140577
671.076	0.0139957
671.155	0.0140266
671.233	0.0139792
671.311	0.0138756
671.389	0.0138704
671.467	0.0136810
671.545	0.0138116
671.623	0.0138574
671.701	0.0138133
671.780	0.0136844
671.858	0.0136330
671.936	0.0137589
672.014	0.0137195
672.092	0.0137235
672.170	0.0138358
672.248	0.0138868
672.326	0.0139212
672.405	0.0140086
672.483	0.0141247
672.561	0.0141333
672.639	0.0142072
672.717	0.0142876
672.795	0.0143546
672.873	0.0144244
672.951	0.0147076
673.030	0.0148066
673.108	0.0150318
673.186	0.0147961
673.264	0.0148873
673.342	0.0151904
673.420	0.0151429
673.498	0.0152924
673.576	0.0153468
673.655	0.0154123
673.733	0.0155431
673.811	0.0155516
673.889	0.0156454
673.967	0.0157970
674.045	0.0158688
674.123	0.0158634
674.201	0.0158109
674.280	0.0157090
674.358	0.0156561
674.436	0.0155771
674.514	0.0158241
674.592	0.0158162
674.670	0.0156532
674.748	0.0154468
674.826	0.0154716
674.905	0.0151914
674.983	0.0149972
675.061	0.0149403
675.139	0.0148254
675.217	0.0147048
675.295	0.0147728
675.373	0.0146059
675.451	0.0142954
675.530	0.0141663
675.608	0.0138532
675.686	0.0138528
675.764	0.0138126
675.842	0.0136208
675.920	0.0135423
675.998	0.0132731
676.076	0.0133524
676.155	0.0132018
676.233	0.0131354
676.311	0.0132624
676.389	0.0131770
676.467	0.0131362
676.545	0.0131152
676.623	0.0131756
676.701	0.0132621
676.780	0.0133624
676.858	0.0135411
676.936	0.0136182
677.014	0.0136727
677.092	0.0139896
677.170	0.0139275
677.248	0.0142126
677.326	0.0144562
677.405	0.0144520
677.483	0.0146840
677.561	0.0147174
677.639	0.0150497
677.717	0.0150190
677.795	0.0150742
677.873	0.0152766
677.951	0.0152459
678.030	0.0152098
678.108	0.0150905
678.186	0.0153094
678.264	0.0153373
678.342	0.0153147
678.420	0.0152188
678.498	0.0152400
678.576	0.0153161
678.655	0.0151252
678.733	0.0150227
678.811	0.0151398
678.889	0.0150095
678.967	0.0150183
679.045	0.0151067
679.123	0.0149232
679.201	0.0149890
679.280	0.0148183
679.358	0.0148569
679.436	0.0147449
679.514	0.0145547
679.592	0.0144467
679.670	0.0144518
679.748	0.0143848
679.826	0.0142178
679.905	0.0141990
679.983	0.0143623
680.061	0.0143047
680.139	0.0141664
680.217	0.0142957
680.295	0.0142553
680.373	0.0142677
680.451	0.0141406
680.530	0.0143132
680.608	0.0143084
680.686	0.0143344
680.764	0.0144983
680.842	0.0143681
680.920	0.0145053
680.998	0.0145237
681.076	0.0145406
681.155	0.0145973
681.233	0.0144466
681.311	0.0146983
681.389	0.0145566
681.467	0.0145718
681.545	0.0146190
681.623	0.0144491
681.701	0.0144506
681.780	0.0146283
681.858	0.0144563
681.936	0.0143374
682.014	0.0143623
682.092	0.0143736
682.170	0.0143134
682.248	0.0142889
682.326	0.0143404
682.405	0.0142828
682.483	0.0142808
682.561	0.0142207
682.639	0.0141801
682.717	0.0141750
682.795	0.0142905
682.873	0.0141771
682.951	0.0142313
683.030	0.0142422
683.108	0.0141801
683.186	0.0141926
683.264	0.0141646
683.342	0.0142924
683.420	0.0143700
683.498	0.0145547
683.576	0.0144570
683.655	0.0143463
683.733	0.0145814
683.811	0.0145773
683.889	0.0145848
683.967	0.0146588
684.045	0.0146046
684.123	0.0146568
684.201	0.0148210
684.280	0.0148232
684.358	0.0149747
684.436	0.0148639
684.514	0.0148154
684.592	0.0147903
684.670	0.0149756
684.748	0.0149992
684.826	0.0149405
684.905	0.0150526
684.983	0.0149963
685.061	0.0150923
685.139	0.0150595
685.217	0.0150820
685.295	0.0150737
685.373	0.0151833
685.451	0.0152898
685.530	0.0151569
685.608	0.0151982
685.686	0.0151596
685.764	0.0148987
685.842	0.0149395
685.920	0.0149837
685.998	0.0148075
686.076	0.0147425
686.155	0.0147613
686.233	0.0147522
686.311	0.0146452
686.389	0.0145815
686.467	0.0146324
686.545	0.0145123
686.623	0.0143678
686.701	0.0143524
686.780	0.0142423
686.858	0.0141707
686.936	0.0141742
687.014	0.0140086
687.092	0.0138964
687.170	0.0140424
687.248	0.0139018
687.326	0.0140952
687.405	0.0140102
687.483	0.0140418
687.561	0.0140926
687.639	0.0141114
687.717	0.0143330
687.795	0.0143339
687.873	0.0142936
687.951	0.0143918
688.030	0.0144650
688.108	0.0144225
688.186	0.0144154
688.264	0.0144794
688.342	0.0145202
688.420	0.0144349
688.498	0.0145515
688.576	0.0146147
688.655	0.0145701
688.733	0.0146128
688.811	0.0145547
688.889	0.0146835
688.967	0.0145267
689.045	0.0145412
689.123	0.0145652
689.201	0.0145897
689.280	0.0146237
689.358	0.0144995
689.436	0.0144732
689.514	0.0142723
689.592	0.0143745
689.670	0.0144011
689.748	0.0141847
689.826	0.0142107
689.905	0.0141285
689.983	0.0141736
690.061	0.0142683
690.139	0.0140449
690.217	0.0141654
690.295	0.0141341
690.373	0.0142547
690.451	0.0142010
690.530	0.0142989
690.608	0.0143078
690.686	0.0144211
690.764	0.0144081
690.842	0.0144968
690.920	0.0145472
690.998	0.0146196
691.076	0.0147206
691.155	0.0148749
691.233	0.0150970
691.311	0.0150318
691.389	0.0151795
691.467	0.0151842
691.545	0.0153799
691.623	0.0153563
691.701	0.0152706
691.780	0.0154764
691.858	0.0153452
691.936	0.0154665
692.014	0.0153930
692.092	0.0154988
692.170	0.0153914
692.248	0.0153295
692.326	0.0153770
692.405	0.0152573
692.483	0.0152399
692.561	0.0154469
692.639	0.0152950
692.717	0.0151531
692.795	0.0150205
692.873	0.0148004
692.951	0.0149008
693.030	0.0146015
693.108	0.0144814
693.186	0.0144141
693.264	0.0143996
693.342	0.0141344
693.420	0.0140688
693.498	0.0139522
693.576	0.0140022
693.655	0.0138922
693.733	0.0138724
693.811	0.0138293
693.889	0.0137074
693.967	0.0137151
694.045	0.0137333
694.123	0.0135995
694.201	0.0137670
694.280	0.0138298
694.358	0.0137514
694.436	0.0137099
694.514	0.0137985
694.592	0.0137408
694.670	0.0139137
694.748	0.0138543
694.826	0.0139701
694.905	0.0139083
694.983	0.0138901
695.061	0.0139910
695.139	0.0140205
695.217	0.0139165
695.295	0.0141442
695.373	0.0141812
695.451	0.0142088
695.530	0.0142480
695.608	0.0143053
695.686	0.0146235
695.764	0.0147041
695.842	0.0147765
695.920	0.0148159
695.998	0.0148351
696.076	0.0149857
696.155	0.0149210
696.233	0.0150311
696.311	0.0150879
696.389	0.0149219
696.467	0.0152270
696.545	0.0151962
696.623	0.0150999
696.701	0.0151665
696.780	0.0151588
696.858	0.0152596
696.936	0.0151782
697.014	0.0153552
697.092	0.0153179
697.170	0.0152927
697.248	0.0154237
697.326	0.0155175
697.405	0.0154092
697.483	0.0153777
697.561	0.0153193
697.639	0.0154552
697.717	0.0155901
697.795	0.0153997
697.873	0.0153896
697.951	0.0152216
698.030	0.0152646
698.108	0.0152354
698.186	0.0151916
698.264	0.0149831
698.342	0.0149168
698.420	0.0148254
698.498	0.0146230
698.576	0.0145173
698.655	0.0145888
698.733	0.0143710
698.811	0.0141221
698.889	0.0140971
698.967	0.0138895
699.045	0.0137730
699.123	0.0137438
699.201	0.0136129
699.280	0.0137057
699.358	0.0137629
699.436	0.0137818
699.514	0.0136775
699.592	0.0136942
699.670	0.0138551
699.748	0.0139604
699.826	0.0139512
699.905	0.0139366
699.983	0.0140142
700.061	0.0141698
700.139	0.0141447
700.217	0.0142883
700.295	0.0145635
700.373	0.0143491
700.451	0.0144592
700.530	0.0144230
700.608	0.0143672
700.686	0.0144196
700.764	0.0143700
700.842	0.0146534
700.920	0.0144647
700.998	0.0144414
701.076	0.0145219
701.155	0.0145503
701.233	0.0144617
701.311	0.0144791
701.389	0.0144427
701.467	0.0145216
701.545	0.0145138
701.623	0.0144781
701.701	0.0145278
701.780	0.0147077
701.858	0.0146581
701.936	0.0146757
702.014	0.0146645
702.092	0.0148513
702.170	0.0148433
702.248	0.0149220
702.326	0.0148983
702.405	0.0149352
702.483	0.0150298
702.561	0.0150414
702.639	0.0149749
702.717	0.0151783
702.795	0.0152312
702.873	0.0151538
702.951	0.0149822
703.030	0.0151649
703.108	0.0152351
703.186	0.0151835
703.264	0.0151546
703.342	0.0150386
703.420	0.0149536
703.498	0.0149972
703.576	0.0148492
703.655	0.0146635
703.733	0.0147012
703.811	0.0146400
703.889	0.0143221
703.967	0.0142519
704.045	0.0140623
704.123	0.0141134
704.201	0.0140833
704.280	0.0139637
704.358	0.0138958
704.436	0.0139482
704.514	0.0138284
704.592	0.0138866
704.670	0.0137676
704.748	0.0138373
704.826	0.0138869
704.905	0.0139886
704.983	0.0138112
705.061	0.0138123
705.139	0.0140033
705.217	0.0139812
705.295	0.0141267
705.373	0.0141576
705.451	0.0141601
705.530	0.0141902
705.608	0.0142235
705.686	0.0145742
705.764	0.0144717
705.842	0.0145336
705.920	0.0145547
705.998	0.0145650
706.076	0.0147363
706.155	0.0146869
706.233	0.0147298
706.311	0.0147578
706.389	0.0147602
706.467	0.0148267
706.545	0.0149075
706.623	0.0148505
706.701	0.0147221
706.780	0.0147844
706.858	0.0148421
706.936	0.0146736
707.014	0.0147897
707.092	0.0148136
707.170	0.0145705
707.248	0.0145785
707.326	0.0147336
707.405	0.0146710
707.483	0.0145693
707.561	0.0145717
707.639	0.0146742
707.717	0.0146422
707.795	0.0147215
707.873	0.0146590
707.951	0.0146568
708.030	0.0147197
708.108	0.0148141
708.186	0.0147687
708.264	0.0147624
708.342	0.0148977
708.420	0.0147874
708.498	0.0150497
708.576	0.0149712
708.655	0.0148512
708.733	0.0149193
708.811	0.0151311
708.889	0.0149262
708.967	0.0150176
709.045	0.0148650
709.123	0.0150372
709.201	0.0149583
709.280	0.0149551
709.358	0.0149056
709.436	0.0149096
709.514	0.0149340
709.592	0.0150816
709.670	0.0148845
709.748	0.0147569
709.826	0.0148310
709.905	0.0147687
709.983	0.0146260
710.061	0.0147070
710.139	0.0145715
710.217	0.0145289
710.295	0.0145561
710.373	0.0143673
710.451	0.0142610
710.530	0.0143124
710.608	0.0142477
710.686	0.0140800
710.764	0.0140571
710.842	0.0141624
710.920	0.0139691
710.998	0.0140667
711.076	0.0139922
711.155	0.0140080
711.233	0.0139757
711.311	0.0139536
711.389	0.0141318
711.467	0.0139439
711.545	0.0140230
711.623	0.0139566
711.701	0.0139142
711.780	0.0140014
711.858	0.0140339
711.936	0.0141529
712.014	0.0140131
712.092	0.0141513
712.170	0.0143041
712.248	0.0143893
712.326	0.0144413
712.405	0.0144600
712.483	0.0144160
712.561	0.0145898
712.639	0.0146638
712.717	0.0145866
712.795	0.0147202
712.873	0.0146497
712.951	0.0148603
713.030	0.0149786
713.108	0.0148075
713.186	0.0150671
713.264	0.0150635
713.342	0.0151910
713.420	0.0152191
713.498	0.0152203
713.576	0.0152543
713.655	0.0152263
713.733	0.0152122
713.811	0.0150726
713.889	0.0151927
713.967	0.0151108
714.045	0.0150674
714.123	0.0150022
714.201	0.0148054
714.280	0.0148814
714.358	0.0147203
714.436	0.0145951
714.514	0.0146289
714.592	0.0144889
714.670	0.0143764
714.748	0.0144740
714.826	0.0145435
714.905	0.0143359
714.983	0.0142821
715.061	0.0143698
715.139	0.0143421
715.217	0.0143238
715.295	0.0143909
715.373	0.0143421
715.451	0.0142668
715.530	0.0142616
715.608	0.0141864
715.686	0.0141050
715.764	0.0142015
715.842	0.0141956
715.920	0.0142047
715.998	0.0141497
716.076	0.0141689
716.155	0.0142271
716.233	0.0141452
716.311	0.0141475
716.389	0.0142384
716.467	0.0143697
716.545	0.0143225
716.623	0.0143233
716.701	0.0143533
716.780	0.0141967
716.858	0.0141865
716.936	0.0144189
717.014	0.0143308
717.092	0.0140871
717.170	0.0143082
717.248	0.0143150
717.326	0.0143246
717.405	0.0144315
717.483	0.0143645
717.561	0.0143027
717.639	0.0143295
717.717	0.0143865
717.795	0.0145111
717.873	0.0144987
717.951	0.0143969
718.030	0.0146199
718.108	0.0146490
718.186	0.0145512
718.264	0.0146655
718.342	0.0147295
718.420	0.0148229
718.498	0.0148627
718.576	0.0146628
718.655	0.0147919
718.733	0.0148267
718.811	0.0147361
718.889	0.0148587
718.967	0.0149177
719.045	0.0148232
719.123	0.0149242
719.201	0.0152203
719.280	0.0151855
719.358	0.0151172
719.436	0.0152669
719.514	0.0152516
719.592	0.0151688
719.670	0.0153159
719.748	0.0153169
719.826	0.0153471
719.905	0.0151706
719.983	0.0150734
720.061	0.0149062
720.139	0.0149366
720.217	0.0149178
720.295	0.0147910
720.373	0.0147037
720.451	0.0146296
720.530	0.0144472
720.608	0.0142767
720.686	0.0142817
720.764	0.0141077
720.842	0.0140709
720.920	0.0140182
720.998	0.0138895
721.076	0.0137157
721.155	0.0136760
721.233	0.0135516
721.311	0.0135422
721.389	0.0136274
721.467	0.0136189
721.545	0.0134861
721.623	0.0134437
721.701	0.0135423
721.780	0.0134318
721.858	0.0135601
721.936	0.0136259
722.014	0.0135768
722.092	0.0137329
722.170	0.0138818
722.248	0.0139278
722.326	0.0140451
722.405	0.0142013
722.483	0.0143046
722.561	0.0144964
722.639	0.0145193
722.717	0.0146428
722.795	0.0147987
722.873	0.0149233
722.951	0.0149869
723.030	0.0151634
723.108	0.0151329
723.186	0.0152313
723.264	0.0151817
723.342	0.0153490
723.420	0.0154398
723.498	0.0155106
723.576	0.0153171
723.655	0.0154706
723.733	0.0154599
723.811	0.0154121
723.889	0.0153650
723.967	0.0153652
724.045	0.0152848
724.123	0.0151679
724.201	0.0150495
724.280	0.0150227
724.358	0.0148782
724.436	0.0149166
724.514	0.0148112
724.592	0.0145647
724.670	0.0144868
724.748	0.0145324
724.826	0.0144249
724.905	0.0143597
724.983	0.0143493
725.061	0.0142123
725.139	0.0144225
725.217	0.0140797
725.295	0.0141409
725.373	0.0141841
725.451	0.0143099
725.530	0.0141940
725.608	0.0143504
725.686	0.0146680
