05/20/2022	16:10:06	Ver.	4.1	UNKNOWN
Optical Delay	639.982744	Delta X		0.078125	Sweeps	1	Scan Rate	0/0
Coordinates	Axis 1	NaN	Axis 2	NaN	Axis 3	NaN	Axis 4	NaN	Axis 5	NaN	Axis 6	0.000000
TX Power	0.000000	RX Power	0.000000

639.983	0.0148829
640.061	0.0149698
640.139	0.0148593
640.217	0.0148212
640.295	0.0148021
640.373	0.0147805
640.451	0.0148456
640.530	0.0148211
640.608	0.0149070
640.686	0.0148330
640.764	0.0149717
640.842	0.0148126
640.920	0.0148248
640.998	0.0149287
641.076	0.0148788
641.155	0.0149452
641.233	0.0148515
641.311	0.0148927
641.389	0.0149986
641.467	0.0150426
641.545	0.0148957
641.623	0.0148194
641.701	0.0149111
641.780	0.0148404
641.858	0.0148486
641.936	0.0149198
642.014	0.0149094
642.092	0.0148830
642.170	0.0149368
642.248	0.0149012
642.326	0.0149097
642.405	0.0149105
642.483	0.0148794
642.561	0.0149909
642.639	0.0148252
642.717	0.0148903
642.795	0.0148348
642.873	0.0149533
642.951	0.0148037
643.030	0.0148571
643.108	0.0149268
643.186	0.0149110
643.264	0.0149801
643.342	0.0148866
643.420	0.0149717
643.498	0.0148507
643.576	0.0147601
643.655	0.0148084
643.733	0.0148832
643.811	0.0147765
643.889	0.0148676
643.967	0.0148496
644.045	0.0148254
644.123	0.0148907
644.201	0.0149218
644.280	0.0148891
644.358	0.0148751
644.436	0.0148667
644.514	0.0147873
644.592	0.0148508
644.670	0.0149075
644.748	0.0148489
644.826	0.0148899
644.905	0.0147861
644.983	0.0147614
645.061	0.0148486
645.139	0.0148721
645.217	0.0148077
645.295	0.0149966
645.373	0.0147547
645.451	0.0148702
645.530	0.0148454
645.608	0.0147119
645.686	0.0148572
645.764	0.0148952
645.842	0.0148710
645.920	0.0147461
645.998	0.0146996
646.076	0.0148290
646.155	0.0148302
646.233	0.0148253
646.311	0.0148254
646.389	0.0148577
646.467	0.0148499
646.545	0.0149299
646.623	0.0149646
646.701	0.0149219
646.780	0.0148270
646.858	0.0147704
646.936	0.0148513
647.014	0.0147884
647.092	0.0148773
647.170	0.0148399
647.248	0.0147535
647.326	0.0148680
647.405	0.0149271
647.483	0.0149018
647.561	0.0149767
647.639	0.0148331
647.717	0.0149187
647.795	0.0150002
647.873	0.0148980
647.951	0.0148584
648.030	0.0149104
648.108	0.0148220
648.186	0.0149423
648.264	0.0149678
648.342	0.0150307
648.420	0.0148559
648.498	0.0148194
648.576	0.0147658
648.655	0.0148872
648.733	0.0149656
648.811	0.0150388
648.889	0.0147792
648.967	0.0149504
649.045	0.0148825
649.123	0.0148748
649.201	0.0147679
649.280	0.0149076
649.358	0.0150330
649.436	0.0147968
649.514	0.0148804
649.592	0.0149860
649.670	0.0148288
649.748	0.0148660
649.826	0.0147758
649.905	0.0148056
649.983	0.0149607
650.061	0.0149006
650.139	0.0149168
650.217	0.0148173
650.295	0.0149774
650.373	0.0150045
650.451	0.0148913
650.530	0.0149512
650.608	0.0149395
650.686	0.0149992
650.764	0.0149723
650.842	0.0149276
650.920	0.0149950
650.998	0.0148898
651.076	0.0148479
651.155	0.0149453
651.233	0.0150005
651.311	0.0148856
651.389	0.0149840
651.467	0.0148186
651.545	0.0148743
651.623	0.0149690
651.701	0.0149149
651.780	0.0147960
651.858	0.0148885
651.936	0.0149065
652.014	0.0148919
652.092	0.0150775
652.170	0.0149559
652.248	0.0149695
652.326	0.0149023
652.405	0.0149084
652.483	0.0149648
652.561	0.0148892
652.639	0.0148449
652.717	0.0150187
652.795	0.0149305
652.873	0.0148701
652.951	0.0148853
653.030	0.0148409
653.108	0.0149182
653.186	0.0148310
653.264	0.0149877
653.342	0.0149348
653.420	0.0149040
653.498	0.0149411
653.576	0.0148956
653.655	0.0148795
653.733	0.0147932
653.811	0.0149580
653.889	0.0148919
653.967	0.0148956
654.045	0.0148068
654.123	0.0149724
654.201	0.0148958
654.280	0.0148589
654.358	0.0148921
654.436	0.0149961
654.514	0.0149374
654.592	0.0148929
654.670	0.0148718
654.748	0.0149133
654.826	0.0148640
654.905	0.0149061
654.983	0.0148726
655.061	0.0149624
655.139	0.0149097
655.217	0.0148438
655.295	0.0148893
655.373	0.0149806
655.451	0.0148917
655.530	0.0149960
655.608	0.0148554
655.686	0.0148778
655.764	0.0149992
655.842	0.0148007
655.920	0.0147997
655.998	0.0149716
656.076	0.0148618
656.155	0.0150399
656.233	0.0149709
656.311	0.0150095
656.389	0.0149029
656.467	0.0149075
656.545	0.0148931
656.623	0.0148842
656.701	0.0149059
656.780	0.0149349
656.858	0.0149564
656.936	0.0147736
657.014	0.0148169
657.092	0.0148696
657.170	0.0150243
657.248	0.0149680
657.326	0.0148779
657.405	0.0148786
657.483	0.0148613
657.561	0.0148900
657.639	0.0148394
657.717	0.0148125
657.795	0.0149374
657.873	0.0147797
657.951	0.0148204
658.030	0.0149210
658.108	0.0148742
658.186	0.0148737
658.264	0.0149205
658.342	0.0149024
658.420	0.0147237
658.498	0.0149152
658.576	0.0148867
658.655	0.0147343
658.733	0.0147999
658.811	0.0149738
658.889	0.0148370
658.967	0.0148512
659.045	0.0147478
659.123	0.0148825
659.201	0.0148138
659.280	0.0147515
659.358	0.0148120
659.436	0.0147764
659.514	0.0149017
659.592	0.0148739
659.670	0.0149338
659.748	0.0148413
659.826	0.0147509
659.905	0.0149317
659.983	0.0148386
660.061	0.0148379
660.139	0.0148809
660.217	0.0148826
660.295	0.0148029
660.373	0.0149705
660.451	0.0150288
660.530	0.0148812
660.608	0.0147712
660.686	0.0148271
660.764	0.0150011
660.842	0.0148781
660.920	0.0147791
660.998	0.0148706
661.076	0.0148949
661.155	0.0147916
661.233	0.0148227
661.311	0.0147716
661.389	0.0148606
661.467	0.0149001
661.545	0.0148168
661.623	0.0148129
661.701	0.0148539
661.780	0.0148296
661.858	0.0148434
661.936	0.0148965
662.014	0.0150244
662.092	0.0148391
662.170	0.0147312
662.248	0.0148986
662.326	0.0147297
662.405	0.0148469
662.483	0.0147993
662.561	0.0148257
662.639	0.0149710
662.717	0.0149048
662.795	0.0146851
662.873	0.0149654
662.951	0.0147508
663.030	0.0148420
663.108	0.0148972
663.186	0.0148704
663.264	0.0148309
663.342	0.0148183
663.420	0.0148086
663.498	0.0148678
663.576	0.0149252
663.655	0.0147997
663.733	0.0148295
663.811	0.0149522
663.889	0.0146583
663.967	0.0147182
664.045	0.0150249
664.123	0.0149203
664.201	0.0148264
664.280	0.0148171
664.358	0.0148774
664.436	0.0148000
664.514	0.0148658
664.592	0.0149265
664.670	0.0149014
664.748	0.0148130
664.826	0.0148327
664.905	0.0148991
664.983	0.0148111
665.061	0.0148821
665.139	0.0147810
665.217	0.0147856
665.295	0.0148855
665.373	0.0149973
665.451	0.0148816
665.530	0.0148860
665.608	0.0148674
665.686	0.0148392
665.764	0.0147903
665.842	0.0148828
665.920	0.0149353
665.998	0.0148576
666.076	0.0148225
666.155	0.0148620
666.233	0.0147908
666.311	0.0148103
666.389	0.0148389
666.467	0.0148453
666.545	0.0149117
666.623	0.0148027
666.701	0.0148425
666.780	0.0149162
666.858	0.0147454
666.936	0.0149010
667.014	0.0149001
667.092	0.0148696
667.170	0.0149032
667.248	0.0148702
667.326	0.0148710
667.405	0.0149021
667.483	0.0149459
667.561	0.0148312
667.639	0.0147803
667.717	0.0148193
667.795	0.0148212
667.873	0.0149953
667.951	0.0148856
668.030	0.0148211
668.108	0.0146993
668.186	0.0148895
668.264	0.0150394
668.342	0.0148265
668.420	0.0148509
668.498	0.0149206
668.576	0.0148747
668.655	0.0148272
668.733	0.0148330
668.811	0.0148076
668.889	0.0148836
668.967	0.0148608
669.045	0.0149315
669.123	0.0149885
669.201	0.0148904
669.280	0.0149532
669.358	0.0149113
669.436	0.0148921
669.514	0.0147586
669.592	0.0148748
669.670	0.0148624
669.748	0.0149850
669.826	0.0150155
669.905	0.0150282
669.983	0.0149196
670.061	0.0149550
670.139	0.0149364
670.217	0.0149343
670.295	0.0149466
670.373	0.0147505
670.451	0.0148289
670.530	0.0148488
670.608	0.0148453
670.686	0.0149811
670.764	0.0149894
670.842	0.0149804
670.920	0.0149901
670.998	0.0148584
671.076	0.0149386
671.155	0.0148014
671.233	0.0147729
671.311	0.0147432
671.389	0.0149098
671.467	0.0148601
671.545	0.0148684
671.623	0.0148927
671.701	0.0149603
671.780	0.0149364
671.858	0.0149953
671.936	0.0147888
672.014	0.0146873
672.092	0.0148389
672.170	0.0149221
672.248	0.0149557
672.326	0.0147749
672.405	0.0148382
672.483	0.0149278
672.561	0.0149142
672.639	0.0147380
672.717	0.0148983
672.795	0.0148772
672.873	0.0149850
672.951	0.0149213
673.030	0.0149155
673.108	0.0149419
673.186	0.0148846
673.264	0.0149686
673.342	0.0150087
673.420	0.0149115
673.498	0.0149522
673.576	0.0147848
673.655	0.0148645
673.733	0.0148434
673.811	0.0148959
673.889	0.0148577
673.967	0.0148791
674.045	0.0148980
674.123	0.0149248
674.201	0.0148090
674.280	0.0147568
674.358	0.0148508
674.436	0.0149279
674.514	0.0149248
674.592	0.0148156
674.670	0.0149342
674.748	0.0148083
674.826	0.0147462
674.905	0.0147799
674.983	0.0147128
675.061	0.0149125
675.139	0.0150291
675.217	0.0149802
675.295	0.0149349
675.373	0.0149762
675.451	0.0148332
675.530	0.0148339
675.608	0.0149260
675.686	0.0150761
675.764	0.0149281
675.842	0.0148201
675.920	0.0148662
675.998	0.0147797
676.076	0.0147648
676.155	0.0148178
676.233	0.0148071
676.311	0.0149760
676.389	0.0148598
676.467	0.0148544
676.545	0.0149050
676.623	0.0149190
676.701	0.0148659
676.780	0.0149681
676.858	0.0149461
676.936	0.0149268
677.014	0.0148595
677.092	0.0147300
677.170	0.0147850
677.248	0.0148338
677.326	0.0149703
677.405	0.0148248
677.483	0.0149269
677.561	0.0148972
677.639	0.0148389
677.717	0.0148258
677.795	0.0148845
677.873	0.0149505
677.951	0.0147787
678.030	0.0148441
678.108	0.0149867
678.186	0.0149115
678.264	0.0147372
678.342	0.0149831
678.420	0.0149129
678.498	0.0147524
678.576	0.0148942
678.655	0.0149027
678.733	0.0148817
678.811	0.0149609
678.889	0.0148047
678.967	0.0147011
679.045	0.0148251
679.123	0.0147897
679.201	0.0148605
679.280	0.0148428
679.358	0.0149880
679.436	0.0148900
679.514	0.0147536
679.592	0.0149275
679.670	0.0147975
679.748	0.0147449
679.826	0.0147234
679.905	0.0148446
679.983	0.0148195
680.061	0.0148119
680.139	0.0148163
680.217	0.0148957
680.295	0.0148643
680.373	0.0148047
680.451	0.0149172
680.530	0.0148229
680.608	0.0148945
680.686	0.0149218
680.764	0.0148550
680.842	0.0148905
680.920	0.0148801
680.998	0.0147827
681.076	0.0148478
681.155	0.0148052
681.233	0.0149062
681.311	0.0148767
681.389	0.0148640
681.467	0.0148717
681.545	0.0147982
681.623	0.0148553
681.701	0.0149411
681.780	0.0148587
681.858	0.0149713
681.936	0.0148324
682.014	0.0149045
682.092	0.0148419
682.170	0.0148576
682.248	0.0149006
682.326	0.0148527
682.405	0.0148314
682.483	0.0149110
682.561	0.0148412
682.639	0.0148849
682.717	0.0148343
682.795	0.0149516
682.873	0.0147831
682.951	0.0146765
683.030	0.0148078
683.108	0.0150401
683.186	0.0148151
683.264	0.0147993
683.342	0.0148354
683.420	0.0149565
683.498	0.0148112
683.576	0.0149581
683.655	0.0147882
683.733	0.0148006
683.811	0.0149147
683.889	0.0149213
683.967	0.0149572
684.045	0.0148299
684.123	0.0149862
684.201	0.0149005
684.280	0.0148132
684.358	0.0149538
684.436	0.0148271
684.514	0.0147633
684.592	0.0148514
684.670	0.0148669
684.748	0.0148659
684.826	0.0148574
684.905	0.0149367
684.983	0.0149700
685.061	0.0148408
685.139	0.0148389
685.217	0.0149358
685.295	0.0149065
685.373	0.0149255
685.451	0.0148711
685.530	0.0147435
685.608	0.0146812
685.686	0.0148540
685.764	0.0150881
685.842	0.0150129
685.920	0.0148223
685.998	0.0147922
686.076	0.0148085
686.155	0.0146819
686.233	0.0147495
686.311	0.0149385
686.389	0.0148323
686.467	0.0147656
686.545	0.0149158
686.623	0.0147592
686.701	0.0147731
686.780	0.0147917
686.858	0.0147108
686.936	0.0146998
687.014	0.0148212
687.092	0.0148987
687.170	0.0147895
687.248	0.0147637
687.326	0.0147609
687.405	0.0148779
687.483	0.0149334
687.561	0.0149956
687.639	0.0150056
687.717	0.0151220
687.795	0.0151711
687.873	0.0151547
687.951	0.0153920
688.030	0.0154095
688.108	0.0153568
688.186	0.0153300
688.264	0.0152264
688.342	0.0153297
688.420	0.0151982
688.498	0.0150790
688.576	0.0149236
688.655	0.0146368
688.733	0.0143607
688.811	0.0143980
688.889	0.0141194
688.967	0.0138714
689.045	0.0137305
689.123	0.0135289
689.201	0.0133395
689.280	0.0134761
689.358	0.0134022
689.436	0.0137260
689.514	0.0139513
689.592	0.0143813
689.670	0.0146156
689.748	0.0152713
689.826	0.0158030
689.905	0.0161337
689.983	0.0167593
690.061	0.0171272
690.139	0.0175283
690.217	0.0178551
690.295	0.0179979
690.373	0.0178830
690.451	0.0176961
690.530	0.0173518
690.608	0.0169535
690.686	0.0163870
690.764	0.0157305
690.842	0.0151464
690.920	0.0146101
690.998	0.0139577
691.076	0.0133559
691.155	0.0129638
691.233	0.0125686
691.311	0.0123073
691.389	0.0118147
691.467	0.0116846
691.545	0.0115709
691.623	0.0113412
691.701	0.0112482
691.780	0.0114098
691.858	0.0112473
691.936	0.0114825
692.014	0.0117150
692.092	0.0119424
692.170	0.0122219
692.248	0.0128142
692.326	0.0134676
692.405	0.0142822
692.483	0.0153170
692.561	0.0162810
692.639	0.0173855
692.717	0.0183166
692.795	0.0194653
692.873	0.0202850
692.951	0.0211939
693.030	0.0217429
693.108	0.0220224
693.186	0.0221459
693.264	0.0220079
693.342	0.0214208
693.420	0.0208973
693.498	0.0201360
693.576	0.0191365
693.655	0.0180460
693.733	0.0167898
693.811	0.0157250
693.889	0.0146722
693.967	0.0134081
694.045	0.0124358
694.123	0.0113750
694.201	0.0105500
694.280	0.00973343
694.358	0.00911011
694.436	0.00846939
694.514	0.00784309
694.592	0.00766624
694.670	0.00749153
694.748	0.00746582
694.826	0.00746300
694.905	0.00773140
694.983	0.00803284
695.061	0.00856270
695.139	0.00927856
695.217	0.00999550
695.295	0.0108877
695.373	0.0117213
695.451	0.0126540
695.530	0.0136787
695.608	0.0149406
695.686	0.0160941
695.764	0.0172328
695.842	0.0183308
695.920	0.0194386
695.998	0.0204114
696.076	0.0214931
696.155	0.0222622
696.233	0.0232089
696.311	0.0238754
696.389	0.0244933
696.467	0.0251622
696.545	0.0252541
696.623	0.0252081
696.701	0.0248797
696.780	0.0245683
696.858	0.0237331
696.936	0.0225523
697.014	0.0211816
697.092	0.0196757
697.170	0.0179646
697.248	0.0160022
697.326	0.0143029
697.405	0.0127401
697.483	0.0109001
697.561	0.00944626
697.639	0.00843033
697.717	0.00724373
697.795	0.00663689
697.873	0.00624985
697.951	0.00598404
698.030	0.00608711
698.108	0.00628281
698.186	0.00655273
698.264	0.00699089
698.342	0.00730888
698.420	0.00772018
698.498	0.00779366
698.576	0.00825790
698.655	0.00852707
698.733	0.00864647
698.811	0.00900368
698.889	0.00934250
698.967	0.00991302
699.045	0.0107302
699.123	0.0114055
699.201	0.0122101
699.280	0.0132619
699.358	0.0146197
699.436	0.0158321
699.514	0.0170439
699.592	0.0184335
699.670	0.0197977
699.748	0.0209309
699.826	0.0219929
699.905	0.0228588
699.983	0.0235892
700.061	0.0244257
700.139	0.0247633
700.217	0.0251891
700.295	0.0253624
700.373	0.0253192
700.451	0.0254597
700.530	0.0252378
700.608	0.0251637
700.686	0.0244595
700.764	0.0238825
700.842	0.0229181
700.920	0.0217654
700.998	0.0205264
701.076	0.0191213
701.155	0.0175903
701.233	0.0156499
701.311	0.0138582
701.389	0.0120973
701.467	0.0103860
701.545	0.00864510
701.623	0.00716003
701.701	0.00596046
701.780	0.00506790
701.858	0.00438499
701.936	0.00398148
702.014	0.00379143
702.092	0.00393974
702.170	0.00437302
702.248	0.00499313
702.326	0.00566422
702.405	0.00629807
702.483	0.00725159
702.561	0.00817787
702.639	0.00887085
702.717	0.00962860
702.795	0.0103068
702.873	0.0109358
702.951	0.0115987
703.030	0.0120676
703.108	0.0125352
703.186	0.0131331
703.264	0.0136055
703.342	0.0141724
703.420	0.0149402
703.498	0.0159081
703.576	0.0169304
703.655	0.0176955
703.733	0.0187055
703.811	0.0199551
703.889	0.0210886
703.967	0.0219344
704.045	0.0227284
704.123	0.0235002
704.201	0.0239974
704.280	0.0242822
704.358	0.0244176
704.436	0.0245925
704.514	0.0245376
704.592	0.0240598
704.670	0.0236366
704.748	0.0232019
704.826	0.0226833
704.905	0.0220074
704.983	0.0212127
705.061	0.0203690
705.139	0.0194204
705.217	0.0182462
705.295	0.0171095
705.373	0.0157073
705.451	0.0143194
705.530	0.0129944
705.608	0.0115253
705.686	0.0101234
705.764	0.00875320
705.842	0.00763100
705.920	0.00660393
705.998	0.00588554
706.076	0.00529572
706.155	0.00491295
706.233	0.00499855
706.311	0.00509315
706.389	0.00551819
706.467	0.00600266
706.545	0.00675896
706.623	0.00774216
706.701	0.00868423
706.780	0.00969421
706.858	0.0106893
706.936	0.0115958
707.014	0.0126756
707.092	0.0136297
707.170	0.0143682
707.248	0.0148178
707.326	0.0153970
707.405	0.0158339
707.483	0.0162685
707.561	0.0165078
707.639	0.0166310
707.717	0.0170230
707.795	0.0173440
707.873	0.0176077
707.951	0.0179084
708.030	0.0182653
708.108	0.0186632
708.186	0.0188718
708.264	0.0191553
708.342	0.0195791
708.420	0.0197486
708.498	0.0198679
708.576	0.0199821
708.655	0.0199405
708.733	0.0197131
708.811	0.0197253
708.889	0.0195113
708.967	0.0191490
709.045	0.0189046
709.123	0.0185116
709.201	0.0179308
709.280	0.0174276
709.358	0.0169739
709.436	0.0162864
709.514	0.0155358
709.592	0.0147849
709.670	0.0142386
709.748	0.0137065
709.826	0.0129299
709.905	0.0122736
709.983	0.0117484
710.061	0.0112461
710.139	0.0107900
710.217	0.0104334
710.295	0.0103488
710.373	0.0103654
710.451	0.0103751
710.530	0.0105809
710.608	0.0108762
710.686	0.0112331
710.764	0.0116057
710.842	0.0120014
710.920	0.0127802
710.998	0.0130672
711.076	0.0134273
711.155	0.0140712
711.233	0.0143518
711.311	0.0147153
711.389	0.0151266
711.467	0.0153310
711.545	0.0156403
711.623	0.0158630
711.701	0.0159724
711.780	0.0160696
711.858	0.0162160
711.936	0.0160984
712.014	0.0161354
712.092	0.0159254
712.170	0.0158497
712.248	0.0159116
712.326	0.0158847
712.405	0.0157648
712.483	0.0158066
712.561	0.0158447
712.639	0.0156684
712.717	0.0157884
712.795	0.0157763
712.873	0.0160406
712.951	0.0160603
713.030	0.0161528
713.108	0.0161537
713.186	0.0160634
713.264	0.0158482
713.342	0.0158043
713.420	0.0156448
713.498	0.0154598
713.576	0.0151427
713.655	0.0149548
713.733	0.0146210
713.811	0.0142993
713.889	0.0140121
713.967	0.0136646
714.045	0.0133745
714.123	0.0131921
714.201	0.0132057
714.280	0.0132481
714.358	0.0131403
714.436	0.0131982
714.514	0.0133324
714.592	0.0135529
714.670	0.0137643
714.748	0.0139507
714.826	0.0142011
714.905	0.0143880
714.983	0.0146018
715.061	0.0146862
715.139	0.0150491
715.217	0.0151270
715.295	0.0150249
715.373	0.0152113
715.451	0.0154758
715.530	0.0155900
715.608	0.0156089
715.686	0.0156006
715.764	0.0158285
715.842	0.0158401
715.920	0.0157645
715.998	0.0158804
716.076	0.0160677
716.155	0.0159872
716.233	0.0157185
716.311	0.0157278
716.389	0.0155037
716.467	0.0153064
716.545	0.0151020
716.623	0.0148122
716.701	0.0145437
716.780	0.0146017
716.858	0.0144056
716.936	0.0143433
717.014	0.0141860
717.092	0.0143604
717.170	0.0143882
717.248	0.0145782
717.326	0.0148116
717.405	0.0150767
717.483	0.0151011
717.561	0.0152736
717.639	0.0153468
717.717	0.0155075
717.795	0.0152640
717.873	0.0152759
717.951	0.0153524
718.030	0.0150932
718.108	0.0149687
718.186	0.0148956
718.264	0.0148842
718.342	0.0146766
718.420	0.0146566
718.498	0.0145546
718.576	0.0145213
718.655	0.0145435
718.733	0.0144959
718.811	0.0146200
718.889	0.0144523
718.967	0.0146261
719.045	0.0147262
719.123	0.0145756
719.201	0.0146269
719.280	0.0145524
719.358	0.0144691
719.436	0.0143167
719.514	0.0143712
719.592	0.0143032
719.670	0.0143597
719.748	0.0142034
719.826	0.0141668
719.905	0.0142948
719.983	0.0141197
720.061	0.0143519
720.139	0.0144579
720.217	0.0144388
720.295	0.0145199
720.373	0.0149106
720.451	0.0150052
720.530	0.0150972
720.608	0.0152852
720.686	0.0152863
720.764	0.0153638
720.842	0.0152879
720.920	0.0152729
720.998	0.0153526
721.076	0.0151608
721.155	0.0150930
721.233	0.0150632
721.311	0.0150481
721.389	0.0150835
721.467	0.0150447
721.545	0.0149653
721.623	0.0151817
721.701	0.0153368
721.780	0.0153184
721.858	0.0153809
721.936	0.0155012
722.014	0.0157156
722.092	0.0157628
722.170	0.0158619
722.248	0.0157912
722.326	0.0157903
722.405	0.0157477
722.483	0.0156743
722.561	0.0155663
722.639	0.0154123
722.717	0.0153016
722.795	0.0151414
722.873	0.0149130
722.951	0.0147670
723.030	0.0146991
723.108	0.0143644
723.186	0.0141908
723.264	0.0141557
723.342	0.0140572
723.420	0.0140059
723.498	0.0138638
723.576	0.0139307
723.655	0.0141130
723.733	0.0139854
723.811	0.0141086
723.889	0.0141381
723.967	0.0142263
724.045	0.0143928
724.123	0.0144070
724.201	0.0146076
724.280	0.0146115
724.358	0.0146883
724.436	0.0148294
724.514	0.0149105
724.592	0.0148895
724.670	0.0149241
724.748	0.0149864
724.826	0.0147427
724.905	0.0148557
724.983	0.0149708
725.061	0.0150468
725.139	0.0150317
725.217	0.0149524
725.295	0.0148702
725.373	0.0149677
725.451	0.0147602
