05/20/2022	16:10:46	Ver.	4.1	UNKNOWN
Optical Delay	639.982744	Delta X		0.078125	Sweeps	1	Scan Rate	0/0
Coordinates	Axis 1	NaN	Axis 2	NaN	Axis 3	NaN	Axis 4	NaN	Axis 5	NaN	Axis 6	0.000000
TX Power	0.000000	RX Power	0.000000

639.983	0.0147221
640.061	0.0145682
640.139	0.0147869
640.217	0.0147510
640.295	0.0146127
640.373	0.0146055
640.451	0.0147797
640.530	0.0146236
640.608	0.0146590
640.686	0.0148079
640.764	0.0147401
640.842	0.0147456
640.920	0.0146368
640.998	0.0146499
641.076	0.0146960
641.155	0.0146857
641.233	0.0148072
641.311	0.0147935
641.389	0.0148371
641.467	0.0147588
641.545	0.0147359
641.623	0.0147108
641.701	0.0146730
641.780	0.0146841
641.858	0.0147602
641.936	0.0146122
642.014	0.0146333
642.092	0.0147561
642.170	0.0147591
642.248	0.0147779
642.326	0.0147532
642.405	0.0146353
642.483	0.0147215
642.561	0.0147382
642.639	0.0147871
642.717	0.0146560
642.795	0.0147050
642.873	0.0147694
642.951	0.0147609
643.030	0.0147418
643.108	0.0148190
643.186	0.0147902
643.264	0.0146470
643.342	0.0147212
643.420	0.0148059
643.498	0.0147109
643.576	0.0146486
643.655	0.0149295
643.733	0.0148454
643.811	0.0146986
643.889	0.0146980
643.967	0.0147428
644.045	0.0148888
644.123	0.0147840
644.201	0.0148006
644.280	0.0146854
644.358	0.0147762
644.436	0.0147903
644.514	0.0146849
644.592	0.0147612
644.670	0.0147617
644.748	0.0146684
644.826	0.0147486
644.905	0.0146487
644.983	0.0146766
645.061	0.0147374
645.139	0.0146947
645.217	0.0146925
645.295	0.0147909
645.373	0.0147740
645.451	0.0147448
645.530	0.0147835
645.608	0.0145187
645.686	0.0146048
645.764	0.0147076
645.842	0.0147748
645.920	0.0146566
645.998	0.0145992
646.076	0.0147684
646.155	0.0146760
646.233	0.0146345
646.311	0.0145734
646.389	0.0147478
646.467	0.0147286
646.545	0.0147101
646.623	0.0146145
646.701	0.0146785
646.780	0.0146949
646.858	0.0147116
646.936	0.0148585
647.014	0.0147065
647.092	0.0146663
647.170	0.0147236
647.248	0.0147476
647.326	0.0146585
647.405	0.0147502
647.483	0.0147855
647.561	0.0148063
647.639	0.0146572
647.717	0.0148099
647.795	0.0146799
647.873	0.0147346
647.951	0.0146845
648.030	0.0146499
648.108	0.0146279
648.186	0.0148462
648.264	0.0147733
648.342	0.0147383
648.420	0.0147966
648.498	0.0146993
648.576	0.0148469
648.655	0.0147279
648.733	0.0146291
648.811	0.0147939
648.889	0.0147105
648.967	0.0146709
649.045	0.0147755
649.123	0.0146521
649.201	0.0147427
649.280	0.0147073
649.358	0.0147407
649.436	0.0146854
649.514	0.0146776
649.592	0.0145608
649.670	0.0148063
649.748	0.0146916
649.826	0.0147511
649.905	0.0146471
649.983	0.0148098
650.061	0.0146543
650.139	0.0148093
650.217	0.0147240
650.295	0.0147551
650.373	0.0148193
650.451	0.0147550
650.530	0.0147947
650.608	0.0146907
650.686	0.0149355
650.764	0.0147656
650.842	0.0146509
650.920	0.0148256
650.998	0.0147969
651.076	0.0146420
651.155	0.0147382
651.233	0.0146455
651.311	0.0146522
651.389	0.0147337
651.467	0.0148116
651.545	0.0148038
651.623	0.0146413
651.701	0.0147717
651.780	0.0147991
651.858	0.0147214
651.936	0.0147498
652.014	0.0147530
652.092	0.0147073
652.170	0.0147326
652.248	0.0146220
652.326	0.0147790
652.405	0.0147371
652.483	0.0146552
652.561	0.0148069
652.639	0.0146083
652.717	0.0147585
652.795	0.0146935
652.873	0.0147376
652.951	0.0146659
653.030	0.0146973
653.108	0.0147874
653.186	0.0146801
653.264	0.0147384
653.342	0.0146561
653.420	0.0147622
653.498	0.0147223
653.576	0.0146308
653.655	0.0145903
653.733	0.0147447
653.811	0.0147485
653.889	0.0147652
653.967	0.0146858
654.045	0.0147510
654.123	0.0147096
654.201	0.0147139
654.280	0.0146326
654.358	0.0146946
654.436	0.0147195
654.514	0.0146777
654.592	0.0148415
654.670	0.0147075
654.748	0.0146283
654.826	0.0147590
654.905	0.0147666
654.983	0.0145755
655.061	0.0148440
655.139	0.0146689
655.217	0.0147870
655.295	0.0147636
655.373	0.0147644
655.451	0.0147884
655.530	0.0146510
655.608	0.0147978
655.686	0.0147704
655.764	0.0147215
655.842	0.0147507
655.920	0.0148495
655.998	0.0147758
656.076	0.0147028
656.155	0.0146809
656.233	0.0147458
656.311	0.0147401
656.389	0.0146232
656.467	0.0147050
656.545	0.0147276
656.623	0.0146559
656.701	0.0146982
656.780	0.0147100
656.858	0.0146238
656.936	0.0147933
657.014	0.0147121
657.092	0.0146269
657.170	0.0146394
657.248	0.0146154
657.326	0.0146899
657.405	0.0148786
657.483	0.0146401
657.561	0.0146850
657.639	0.0145167
657.717	0.0146974
657.795	0.0146144
657.873	0.0147236
657.951	0.0147750
658.030	0.0147517
658.108	0.0147353
658.186	0.0146157
658.264	0.0148258
658.342	0.0147412
658.420	0.0148010
658.498	0.0147013
658.576	0.0146001
658.655	0.0146189
658.733	0.0147623
658.811	0.0147010
658.889	0.0146839
658.967	0.0147638
659.045	0.0147914
659.123	0.0146082
659.201	0.0146086
659.280	0.0148121
659.358	0.0146420
659.436	0.0146935
659.514	0.0147874
659.592	0.0147910
659.670	0.0147283
659.748	0.0147062
659.826	0.0145876
659.905	0.0145921
659.983	0.0146961
660.061	0.0146733
660.139	0.0148327
660.217	0.0147598
660.295	0.0146719
660.373	0.0145251
660.451	0.0146807
660.530	0.0146792
660.608	0.0147215
660.686	0.0145992
660.764	0.0147332
660.842	0.0146854
660.920	0.0146723
660.998	0.0147089
661.076	0.0147493
661.155	0.0145018
661.233	0.0147097
661.311	0.0147032
661.389	0.0147060
661.467	0.0147056
661.545	0.0146236
661.623	0.0146960
661.701	0.0146458
661.780	0.0146700
661.858	0.0145981
661.936	0.0147543
662.014	0.0146918
662.092	0.0145921
662.170	0.0146875
662.248	0.0148026
662.326	0.0147492
662.405	0.0147350
662.483	0.0146835
662.561	0.0147952
662.639	0.0148465
662.717	0.0146999
662.795	0.0146531
662.873	0.0144915
662.951	0.0144942
663.030	0.0146602
663.108	0.0146814
663.186	0.0147363
663.264	0.0145718
663.342	0.0146052
663.420	0.0146244
663.498	0.0147479
663.576	0.0149220
663.655	0.0146389
663.733	0.0147327
663.811	0.0147527
663.889	0.0146181
663.967	0.0146459
664.045	0.0145952
664.123	0.0147713
664.201	0.0146852
664.280	0.0146662
664.358	0.0147868
664.436	0.0146539
664.514	0.0147164
664.592	0.0146967
664.670	0.0146329
664.748	0.0146965
664.826	0.0146863
664.905	0.0146304
664.983	0.0148041
665.061	0.0147928
665.139	0.0147560
665.217	0.0147665
665.295	0.0147011
665.373	0.0145655
665.451	0.0146143
665.530	0.0147673
665.608	0.0146825
665.686	0.0148372
665.764	0.0148196
665.842	0.0146494
665.920	0.0147170
665.998	0.0146026
666.076	0.0147071
666.155	0.0146583
666.233	0.0147087
666.311	0.0149016
666.389	0.0146828
666.467	0.0146268
666.545	0.0147620
666.623	0.0148170
666.701	0.0146950
666.780	0.0146549
666.858	0.0146874
666.936	0.0147694
667.014	0.0146774
667.092	0.0146350
667.170	0.0147984
667.248	0.0147159
667.326	0.0146748
667.405	0.0148436
667.483	0.0149052
667.561	0.0147233
667.639	0.0146274
667.717	0.0147798
667.795	0.0148507
667.873	0.0145548
667.951	0.0148311
668.030	0.0148043
668.108	0.0148199
668.186	0.0147614
668.264	0.0146964
668.342	0.0149232
668.420	0.0147009
668.498	0.0147489
668.576	0.0148913
668.655	0.0147085
668.733	0.0146124
668.811	0.0146729
668.889	0.0148535
668.967	0.0148264
669.045	0.0148343
669.123	0.0148583
669.201	0.0148132
669.280	0.0147810
669.358	0.0148593
669.436	0.0147617
669.514	0.0147871
669.592	0.0148241
669.670	0.0147401
669.748	0.0148130
669.826	0.0149004
669.905	0.0147411
669.983	0.0146176
670.061	0.0148901
670.139	0.0149215
670.217	0.0148231
670.295	0.0148008
670.373	0.0147620
670.451	0.0147590
670.530	0.0149006
670.608	0.0147649
670.686	0.0147320
670.764	0.0147032
670.842	0.0147672
670.920	0.0148199
670.998	0.0147972
671.076	0.0147781
671.155	0.0149679
671.233	0.0148080
671.311	0.0146912
671.389	0.0147228
671.467	0.0148623
671.545	0.0146721
671.623	0.0146378
671.701	0.0149245
671.780	0.0146792
671.858	0.0146547
671.936	0.0148013
672.014	0.0148309
672.092	0.0147726
672.170	0.0147754
672.248	0.0148123
672.326	0.0147318
672.405	0.0147404
672.483	0.0147390
672.561	0.0147360
672.639	0.0147058
672.717	0.0147630
672.795	0.0145988
672.873	0.0147336
672.951	0.0147395
673.030	0.0148076
673.108	0.0148007
673.186	0.0147828
673.264	0.0148390
673.342	0.0147792
673.420	0.0147233
673.498	0.0146929
673.576	0.0146952
673.655	0.0146775
673.733	0.0146014
673.811	0.0147549
673.889	0.0147974
673.967	0.0147576
674.045	0.0146992
674.123	0.0146996
674.201	0.0147158
674.280	0.0147449
674.358	0.0147095
674.436	0.0147649
674.514	0.0146535
674.592	0.0147380
674.670	0.0148104
674.748	0.0147375
674.826	0.0146036
674.905	0.0147011
674.983	0.0147408
675.061	0.0147324
675.139	0.0146624
675.217	0.0147832
675.295	0.0146565
675.373	0.0147252
675.451	0.0147084
675.530	0.0146848
675.608	0.0146964
675.686	0.0147489
675.764	0.0148173
675.842	0.0148351
675.920	0.0147162
675.998	0.0146590
676.076	0.0146417
676.155	0.0146838
676.233	0.0147276
676.311	0.0147609
676.389	0.0147974
676.467	0.0145776
676.545	0.0147133
676.623	0.0146959
676.701	0.0145746
676.780	0.0146142
676.858	0.0146594
676.936	0.0145783
677.014	0.0146838
677.092	0.0147382
677.170	0.0145832
677.248	0.0146179
677.326	0.0146675
677.405	0.0147153
677.483	0.0145975
677.561	0.0145096
677.639	0.0145753
677.717	0.0147540
677.795	0.0147069
677.873	0.0147147
677.951	0.0147326
678.030	0.0145876
678.108	0.0145728
678.186	0.0147460
678.264	0.0147520
678.342	0.0147791
678.420	0.0147511
678.498	0.0146835
678.576	0.0146467
678.655	0.0146661
678.733	0.0147221
678.811	0.0146561
678.889	0.0148002
678.967	0.0147158
679.045	0.0146957
679.123	0.0145724
679.201	0.0147323
679.280	0.0146663
679.358	0.0146345
679.436	0.0146793
679.514	0.0146693
679.592	0.0147095
679.670	0.0146465
679.748	0.0146223
679.826	0.0147182
679.905	0.0145825
679.983	0.0147430
680.061	0.0146296
680.139	0.0147166
680.217	0.0146588
680.295	0.0146577
680.373	0.0145291
680.451	0.0146749
680.530	0.0146729
680.608	0.0146975
680.686	0.0148257
680.764	0.0146884
680.842	0.0146990
680.920	0.0146388
680.998	0.0146117
681.076	0.0147910
681.155	0.0147662
681.233	0.0147031
681.311	0.0147289
681.389	0.0145989
681.467	0.0146529
681.545	0.0147373
681.623	0.0146798
681.701	0.0146210
681.780	0.0148125
681.858	0.0148793
681.936	0.0147016
682.014	0.0145863
682.092	0.0146395
682.170	0.0147318
682.248	0.0146730
682.326	0.0147133
682.405	0.0147395
682.483	0.0146597
682.561	0.0145567
682.639	0.0147507
682.717	0.0148002
682.795	0.0145770
682.873	0.0147409
682.951	0.0147158
683.030	0.0146365
683.108	0.0146367
683.186	0.0146889
683.264	0.0146156
683.342	0.0145715
683.420	0.0147108
683.498	0.0146935
683.576	0.0146015
683.655	0.0146777
683.733	0.0147678
683.811	0.0147288
683.889	0.0148152
683.967	0.0147440
684.045	0.0146191
684.123	0.0146642
684.201	0.0147630
684.280	0.0146167
684.358	0.0145283
684.436	0.0147277
684.514	0.0147955
684.592	0.0146680
684.670	0.0146786
684.748	0.0147493
684.826	0.0147931
684.905	0.0146783
684.983	0.0145855
685.061	0.0147025
685.139	0.0148154
685.217	0.0148635
685.295	0.0147212
685.373	0.0147470
685.451	0.0147206
685.530	0.0146091
685.608	0.0148132
685.686	0.0147623
685.764	0.0147321
685.842	0.0146191
685.920	0.0147024
685.998	0.0146771
686.076	0.0146638
686.155	0.0146438
686.233	0.0147181
686.311	0.0146249
686.389	0.0148203
686.467	0.0148201
686.545	0.0147639
686.623	0.0147799
686.701	0.0145863
686.780	0.0148409
686.858	0.0147623
686.936	0.0146685
687.014	0.0148428
687.092	0.0148830
687.170	0.0148383
687.248	0.0149881
687.326	0.0150024
687.405	0.0149927
687.483	0.0148958
687.561	0.0149412
687.639	0.0148771
687.717	0.0148505
687.795	0.0150346
687.873	0.0148232
687.951	0.0147562
688.030	0.0146359
688.108	0.0146157
688.186	0.0145076
688.264	0.0142392
688.342	0.0141900
688.420	0.0141052
688.498	0.0139368
688.576	0.0140326
688.655	0.0141376
688.733	0.0139957
688.811	0.0139918
688.889	0.0140961
688.967	0.0143321
689.045	0.0143945
689.123	0.0145849
689.201	0.0148660
689.280	0.0151466
689.358	0.0151370
689.436	0.0154677
689.514	0.0158350
689.592	0.0161042
689.670	0.0163135
689.748	0.0164500
689.826	0.0166231
689.905	0.0167003
689.983	0.0166013
690.061	0.0165863
690.139	0.0165139
690.217	0.0161260
690.295	0.0159513
690.373	0.0157366
690.451	0.0153269
690.530	0.0147813
690.608	0.0142532
690.686	0.0137828
690.764	0.0131313
690.842	0.0126197
690.920	0.0122005
690.998	0.0117691
691.076	0.0113926
691.155	0.0113271
691.233	0.0113712
691.311	0.0112113
691.389	0.0113799
691.467	0.0116349
691.545	0.0119373
691.623	0.0122202
691.701	0.0128719
691.780	0.0135017
691.858	0.0141891
691.936	0.0147586
692.014	0.0154105
692.092	0.0160722
692.170	0.0166985
692.248	0.0174297
692.326	0.0182303
692.405	0.0186856
692.483	0.0192216
692.561	0.0197861
692.639	0.0200723
692.717	0.0202803
692.795	0.0202110
692.873	0.0198014
692.951	0.0193859
693.030	0.0189167
693.108	0.0181027
693.186	0.0172649
693.264	0.0165183
693.342	0.0156336
693.420	0.0147070
693.498	0.0140886
693.576	0.0135545
693.655	0.0130515
693.733	0.0126815
693.811	0.0123765
693.889	0.0119817
693.967	0.0114484
694.045	0.0111060
694.123	0.0107001
694.201	0.0102375
694.280	0.00992722
694.358	0.00925613
694.436	0.00895309
694.514	0.00845512
694.592	0.00838326
694.670	0.00839470
694.748	0.00844101
694.826	0.00895134
694.905	0.00954712
694.983	0.0103606
695.061	0.0114548
695.139	0.0126176
695.217	0.0138942
695.295	0.0151863
695.373	0.0165942
695.451	0.0175919
695.530	0.0187301
695.608	0.0195946
695.686	0.0204838
695.764	0.0211376
695.842	0.0216943
695.920	0.0221573
695.998	0.0225356
696.076	0.0225961
696.155	0.0228001
696.233	0.0231135
696.311	0.0229803
696.389	0.0226688
696.467	0.0223293
696.545	0.0216953
696.623	0.0208815
696.701	0.0198721
696.780	0.0188500
696.858	0.0174544
696.936	0.0159100
697.014	0.0148234
697.092	0.0132140
697.170	0.0118214
697.248	0.0105527
697.326	0.00950943
697.405	0.00858841
697.483	0.00795860
697.561	0.00750664
697.639	0.00728851
697.717	0.00731506
697.795	0.00745987
697.873	0.00774582
697.951	0.00798218
698.030	0.00843651
698.108	0.00880417
698.186	0.00912308
698.264	0.00945114
698.342	0.00968636
698.420	0.00992149
698.498	0.00999313
698.576	0.0101516
698.655	0.0103061
698.733	0.0105195
698.811	0.0108675
698.889	0.0112646
698.967	0.0117500
699.045	0.0124155
699.123	0.0133268
699.201	0.0143671
699.280	0.0153348
699.358	0.0162938
699.436	0.0176640
699.514	0.0187709
699.592	0.0198389
699.670	0.0210219
699.748	0.0220183
699.826	0.0227942
699.905	0.0235976
699.983	0.0242739
700.061	0.0246922
700.139	0.0250308
700.217	0.0250307
700.295	0.0250590
700.373	0.0248509
700.451	0.0245892
700.530	0.0240816
700.608	0.0233953
700.686	0.0225813
700.764	0.0215242
700.842	0.0202527
700.920	0.0189919
700.998	0.0174171
701.076	0.0157299
701.155	0.0141093
701.233	0.0122849
701.311	0.0107188
701.389	0.00915184
701.467	0.00764359
701.545	0.00632706
701.623	0.00536644
701.701	0.00456573
701.780	0.00403770
701.858	0.00382195
701.936	0.00374527
702.014	0.00384438
702.092	0.00407616
702.170	0.00459030
702.248	0.00531075
702.326	0.00609383
702.405	0.00685074
702.483	0.00775650
702.561	0.00851738
702.639	0.00950806
702.717	0.0100837
702.795	0.0107204
702.873	0.0116869
702.951	0.0121909
703.030	0.0128146
703.108	0.0133073
703.186	0.0141933
703.264	0.0150184
703.342	0.0158740
703.420	0.0168060
703.498	0.0179557
703.576	0.0191222
703.655	0.0200139
703.733	0.0211189
703.811	0.0220388
703.889	0.0228252
703.967	0.0234663
704.045	0.0238272
704.123	0.0240182
704.201	0.0242171
704.280	0.0241397
704.358	0.0239839
704.436	0.0236787
704.514	0.0232243
704.592	0.0228403
704.670	0.0224408
704.748	0.0218211
704.826	0.0212151
704.905	0.0207135
704.983	0.0199856
705.061	0.0190835
705.139	0.0182388
705.217	0.0173122
705.295	0.0160940
705.373	0.0148675
705.451	0.0136140
705.530	0.0121773
705.608	0.0109332
705.686	0.00977180
705.764	0.00858795
705.842	0.00756889
705.920	0.00662697
705.998	0.00577293
706.076	0.00520386
706.155	0.00487907
706.233	0.00473221
706.311	0.00472473
706.389	0.00492172
706.467	0.00537888
706.545	0.00607719
706.623	0.00677200
706.701	0.00768730
706.780	0.00884590
706.858	0.00977654
706.936	0.0109216
707.014	0.0119218
707.092	0.0129195
707.170	0.0137000
707.248	0.0144511
707.326	0.0151994
707.405	0.0156438
707.483	0.0158776
707.561	0.0161514
707.639	0.0164959
707.717	0.0165914
707.795	0.0168069
707.873	0.0170282
707.951	0.0173003
708.030	0.0176604
708.108	0.0180087
708.186	0.0183060
708.264	0.0187616
708.342	0.0190792
708.420	0.0193348
708.498	0.0197957
708.576	0.0201899
708.655	0.0203868
708.733	0.0205812
708.811	0.0206676
708.889	0.0206174
708.967	0.0204350
709.045	0.0202565
709.123	0.0199084
709.201	0.0195444
709.280	0.0190625
709.358	0.0184809
709.436	0.0180410
709.514	0.0172691
709.592	0.0166588
709.670	0.0159250
709.748	0.0152371
709.826	0.0145703
709.905	0.0138726
709.983	0.0131358
710.061	0.0124766
710.139	0.0117128
710.217	0.0113995
710.295	0.0107482
710.373	0.0104536
710.451	0.0102994
710.530	0.0100315
710.608	0.00993027
710.686	0.00963799
710.764	0.00954308
710.842	0.00973518
710.920	0.0100346
710.998	0.0102326
711.076	0.0105927
711.155	0.0109048
711.233	0.0113785
711.311	0.0119287
711.389	0.0126349
711.467	0.0132423
711.545	0.0137573
711.623	0.0143002
711.701	0.0147880
711.780	0.0151760
711.858	0.0155845
711.936	0.0157211
712.014	0.0160050
712.092	0.0161726
712.170	0.0160149
712.248	0.0160371
712.326	0.0159267
712.405	0.0156335
712.483	0.0155550
712.561	0.0154422
712.639	0.0152889
712.717	0.0152797
712.795	0.0151947
712.873	0.0154235
712.951	0.0156066
713.030	0.0158228
713.108	0.0161190
713.186	0.0163224
713.264	0.0165887
713.342	0.0166722
713.420	0.0167646
713.498	0.0169166
713.576	0.0169157
713.655	0.0167390
713.733	0.0164708
713.811	0.0163229
713.889	0.0162167
713.967	0.0160079
714.045	0.0157798
714.123	0.0156624
714.201	0.0152637
714.280	0.0152642
714.358	0.0151680
714.436	0.0149354
714.514	0.0147036
714.592	0.0146604
714.670	0.0145452
714.748	0.0145482
714.826	0.0142963
714.905	0.0142152
714.983	0.0139449
715.061	0.0139195
715.139	0.0136607
715.217	0.0136346
715.295	0.0132086
715.373	0.0131728
715.451	0.0129635
715.530	0.0130068
715.608	0.0130405
715.686	0.0131763
715.764	0.0133366
715.842	0.0135754
715.920	0.0138580
715.998	0.0141212
716.076	0.0142883
716.155	0.0144057
716.233	0.0149033
716.311	0.0150593
716.389	0.0152299
716.467	0.0152948
716.545	0.0152928
716.623	0.0151978
716.701	0.0152866
716.780	0.0151464
716.858	0.0149258
716.936	0.0149023
717.014	0.0147085
717.092	0.0144123
717.170	0.0144541
717.248	0.0145086
717.326	0.0144091
717.405	0.0145446
717.483	0.0146591
717.561	0.0148692
717.639	0.0149014
717.717	0.0150710
717.795	0.0151966
717.873	0.0151521
717.951	0.0153448
718.030	0.0154157
718.108	0.0154752
718.186	0.0154579
718.264	0.0155031
718.342	0.0155451
718.420	0.0155640
718.498	0.0155301
718.576	0.0156046
718.655	0.0154742
718.733	0.0154112
718.811	0.0152453
718.889	0.0151006
718.967	0.0149313
719.045	0.0148989
719.123	0.0147533
719.201	0.0146070
719.280	0.0144296
719.358	0.0144177
719.436	0.0141611
719.514	0.0139883
719.592	0.0139632
719.670	0.0137720
719.748	0.0136362
719.826	0.0136720
719.905	0.0135889
719.983	0.0135084
720.061	0.0134867
720.139	0.0134823
720.217	0.0137289
720.295	0.0137383
720.373	0.0139472
720.451	0.0141638
720.530	0.0143054
720.608	0.0143803
720.686	0.0147771
720.764	0.0148626
720.842	0.0150063
720.920	0.0153024
720.998	0.0152939
721.076	0.0154093
721.155	0.0153973
721.233	0.0154364
721.311	0.0153754
721.389	0.0155263
721.467	0.0155714
721.545	0.0154985
721.623	0.0156701
721.701	0.0156025
721.780	0.0156359
721.858	0.0154944
721.936	0.0154649
722.014	0.0155811
722.092	0.0154793
722.170	0.0153508
722.248	0.0152570
722.326	0.0153098
722.405	0.0150577
722.483	0.0149176
722.561	0.0149720
722.639	0.0146521
722.717	0.0145315
722.795	0.0144335
722.873	0.0143150
722.951	0.0143420
723.030	0.0143609
723.108	0.0142892
723.186	0.0142754
723.264	0.0143259
723.342	0.0143436
723.420	0.0144913
723.498	0.0145282
723.576	0.0144719
723.655	0.0146828
723.733	0.0148305
723.811	0.0146205
723.889	0.0145443
723.967	0.0146758
724.045	0.0146432
724.123	0.0145251
724.201	0.0146256
724.280	0.0144967
724.358	0.0145617
724.436	0.0144921
724.514	0.0145003
724.592	0.0146394
724.670	0.0145762
724.748	0.0145702
724.826	0.0145390
724.905	0.0145824
724.983	0.0146629
725.061	0.0144112
725.139	0.0143414
725.217	0.0143837
725.295	0.0144096
725.373	0.0143351
725.451	0.0142730
