05/20/2022	16:11:51	Ver.	4.1	UNKNOWN
Optical Delay	639.989416	Delta X		0.078125	Sweeps	1	Scan Rate	0/0
Coordinates	Axis 1	NaN	Axis 2	NaN	Axis 3	NaN	Axis 4	NaN	Axis 5	NaN	Axis 6	0.000000
TX Power	0.000000	RX Power	0.000000

639.989	0.0146085
640.068	0.0146764
640.146	0.0147874
640.224	0.0146773
640.302	0.0145824
640.380	0.0146592
640.458	0.0145901
640.536	0.0146705
640.614	0.0144892
640.693	0.0146361
640.771	0.0145477
640.849	0.0146845
640.927	0.0146506
641.005	0.0146027
641.083	0.0147103
641.161	0.0146020
641.239	0.0145416
641.318	0.0146960
641.396	0.0146640
641.474	0.0145869
641.552	0.0145871
641.630	0.0146320
641.708	0.0145654
641.786	0.0147511
641.864	0.0146104
641.943	0.0145434
642.021	0.0146478
642.099	0.0145771
642.177	0.0145232
642.255	0.0146477
642.333	0.0147085
642.411	0.0145264
642.489	0.0146308
642.568	0.0144805
642.646	0.0144956
642.724	0.0145944
642.802	0.0145909
642.880	0.0145681
642.958	0.0146054
643.036	0.0146254
643.114	0.0146904
643.193	0.0145145
643.271	0.0146500
643.349	0.0145537
643.427	0.0145615
643.505	0.0145836
643.583	0.0145911
643.661	0.0145880
643.739	0.0147114
643.818	0.0145631
643.896	0.0145738
643.974	0.0145835
644.052	0.0145562
644.130	0.0146516
644.208	0.0144855
644.286	0.0146880
644.364	0.0146358
644.443	0.0146189
644.521	0.0146198
644.599	0.0146663
644.677	0.0146918
644.755	0.0145278
644.833	0.0147290
644.911	0.0145349
644.989	0.0147678
645.068	0.0145766
645.146	0.0145672
645.224	0.0147699
645.302	0.0145557
645.380	0.0146371
645.458	0.0147548
645.536	0.0145309
645.614	0.0147227
645.693	0.0146707
645.771	0.0144810
645.849	0.0145853
645.927	0.0146357
646.005	0.0145937
646.083	0.0146148
646.161	0.0145548
646.239	0.0146981
646.318	0.0146806
646.396	0.0147165
646.474	0.0146394
646.552	0.0146024
646.630	0.0147028
646.708	0.0146473
646.786	0.0146571
646.864	0.0146298
646.943	0.0146018
647.021	0.0145515
647.099	0.0146979
647.177	0.0146593
647.255	0.0145743
647.333	0.0146283
647.411	0.0147066
647.489	0.0146838
647.568	0.0147208
647.646	0.0146437
647.724	0.0145610
647.802	0.0146037
647.880	0.0146429
647.958	0.0146388
648.036	0.0145891
648.114	0.0146510
648.193	0.0146088
648.271	0.0145945
648.349	0.0147505
648.427	0.0145943
648.505	0.0146491
648.583	0.0147556
648.661	0.0146527
648.739	0.0145595
648.818	0.0145515
648.896	0.0146468
648.974	0.0146606
649.052	0.0145995
649.130	0.0145491
649.208	0.0145720
649.286	0.0146278
649.364	0.0146546
649.443	0.0144823
649.521	0.0146426
649.599	0.0146684
649.677	0.0146011
649.755	0.0146556
649.833	0.0146779
649.911	0.0147301
649.989	0.0144664
650.068	0.0145259
650.146	0.0146776
650.224	0.0145469
650.302	0.0147054
650.380	0.0147372
650.458	0.0145720
650.536	0.0145271
650.614	0.0145880
650.693	0.0147033
650.771	0.0145877
650.849	0.0145375
650.927	0.0146169
651.005	0.0147073
651.083	0.0147173
651.161	0.0145483
651.239	0.0144653
651.318	0.0146510
651.396	0.0145862
651.474	0.0146181
651.552	0.0145625
651.630	0.0145222
651.708	0.0147595
651.786	0.0146648
651.864	0.0145959
651.943	0.0145926
652.021	0.0146420
652.099	0.0147330
652.177	0.0146649
652.255	0.0146662
652.333	0.0146398
652.411	0.0145008
652.489	0.0147176
652.568	0.0146222
652.646	0.0146020
652.724	0.0146943
652.802	0.0146083
652.880	0.0145522
652.958	0.0147206
653.036	0.0147070
653.114	0.0146117
653.193	0.0147523
653.271	0.0146153
653.349	0.0145808
653.427	0.0145959
653.505	0.0148753
653.583	0.0147842
653.661	0.0146440
653.739	0.0146209
653.818	0.0145246
653.896	0.0145181
653.974	0.0145860
654.052	0.0145309
654.130	0.0146452
654.208	0.0148621
654.286	0.0146471
654.364	0.0146690
654.443	0.0146016
654.521	0.0147637
654.599	0.0146184
654.677	0.0145902
654.755	0.0146783
654.833	0.0145224
654.911	0.0145739
654.989	0.0147278
655.068	0.0146458
655.146	0.0146022
655.224	0.0146267
655.302	0.0148137
655.380	0.0146871
655.458	0.0146371
655.536	0.0146365
655.614	0.0146026
655.693	0.0146635
655.771	0.0148045
655.849	0.0146690
655.927	0.0145605
656.005	0.0146881
656.083	0.0146005
656.161	0.0146896
656.239	0.0145990
656.318	0.0145779
656.396	0.0147042
656.474	0.0146143
656.552	0.0146577
656.630	0.0145908
656.708	0.0145499
656.786	0.0146844
656.864	0.0145984
656.943	0.0145764
657.021	0.0145535
657.099	0.0147177
657.177	0.0147895
657.255	0.0146172
657.333	0.0146571
657.411	0.0146358
657.489	0.0146588
657.568	0.0144939
657.646	0.0146950
657.724	0.0145892
657.802	0.0147034
657.880	0.0146658
657.958	0.0146274
658.036	0.0147101
658.114	0.0147257
658.193	0.0146760
658.271	0.0146272
658.349	0.0146185
658.427	0.0146757
658.505	0.0146394
658.583	0.0146210
658.661	0.0146035
658.739	0.0146181
658.818	0.0146025
658.896	0.0145740
658.974	0.0148006
659.052	0.0146508
659.130	0.0145857
659.208	0.0146639
659.286	0.0146838
659.364	0.0145209
659.443	0.0146590
659.521	0.0145393
659.599	0.0145300
659.677	0.0146355
659.755	0.0146674
659.833	0.0145623
659.911	0.0146853
659.989	0.0146792
660.068	0.0145181
660.146	0.0146269
660.224	0.0145920
660.302	0.0144798
660.380	0.0145882
660.458	0.0145647
660.536	0.0147376
660.614	0.0146896
660.693	0.0147585
660.771	0.0145753
660.849	0.0145499
660.927	0.0145210
661.005	0.0145702
661.083	0.0146617
661.161	0.0146854
661.239	0.0144895
661.318	0.0145173
661.396	0.0145894
661.474	0.0145927
661.552	0.0146517
661.630	0.0145457
661.708	0.0147173
661.786	0.0145746
661.864	0.0145242
661.943	0.0145928
662.021	0.0146097
662.099	0.0146185
662.177	0.0147102
662.255	0.0145349
662.333	0.0145720
662.411	0.0146812
662.489	0.0146745
662.568	0.0145525
662.646	0.0147380
662.724	0.0146017
662.802	0.0144704
662.880	0.0146291
662.958	0.0146452
663.036	0.0147147
663.114	0.0147069
663.193	0.0147258
663.271	0.0145662
663.349	0.0147470
663.427	0.0146223
663.505	0.0145842
663.583	0.0146736
663.661	0.0147093
663.739	0.0146992
663.818	0.0146857
663.896	0.0145856
663.974	0.0146342
664.052	0.0147153
664.130	0.0146223
664.208	0.0146514
664.286	0.0146169
664.364	0.0146999
664.443	0.0147244
664.521	0.0147024
664.599	0.0146582
664.677	0.0146227
664.755	0.0147241
664.833	0.0146907
664.911	0.0145706
664.989	0.0146155
665.068	0.0145985
665.146	0.0148131
665.224	0.0146598
665.302	0.0145512
665.380	0.0145741
665.458	0.0145486
665.536	0.0147496
665.614	0.0147208
665.693	0.0146088
665.771	0.0148174
665.849	0.0147264
665.927	0.0147182
666.005	0.0146050
666.083	0.0146054
666.161	0.0147215
666.239	0.0147382
666.318	0.0146124
666.396	0.0147245
666.474	0.0147464
666.552	0.0146460
666.630	0.0145679
666.708	0.0146051
666.786	0.0147012
666.864	0.0146165
666.943	0.0146088
667.021	0.0147946
667.099	0.0146046
667.177	0.0146429
667.255	0.0147248
667.333	0.0147440
667.411	0.0147500
667.489	0.0147045
667.568	0.0146860
667.646	0.0147406
667.724	0.0147416
667.802	0.0146364
667.880	0.0147770
667.958	0.0147267
668.036	0.0145891
668.114	0.0146845
668.193	0.0146139
668.271	0.0146332
668.349	0.0145796
668.427	0.0146237
668.505	0.0146592
668.583	0.0145511
668.661	0.0146851
668.739	0.0144918
668.818	0.0145300
668.896	0.0146338
668.974	0.0147159
669.052	0.0146082
669.130	0.0146262
669.208	0.0146002
669.286	0.0146668
669.364	0.0146051
669.443	0.0145345
669.521	0.0145721
669.599	0.0146306
669.677	0.0146103
669.755	0.0146503
669.833	0.0146230
669.911	0.0146197
669.989	0.0146001
670.068	0.0146631
670.146	0.0146307
670.224	0.0146721
670.302	0.0146591
670.380	0.0146692
670.458	0.0146487
670.536	0.0146034
670.614	0.0146807
670.693	0.0146175
670.771	0.0146214
670.849	0.0147058
670.927	0.0146677
671.005	0.0147218
671.083	0.0145465
671.161	0.0146301
671.239	0.0146201
671.318	0.0145307
671.396	0.0146074
671.474	0.0145573
671.552	0.0145869
671.630	0.0146244
671.708	0.0145791
671.786	0.0145832
671.864	0.0145540
671.943	0.0144919
672.021	0.0145821
672.099	0.0146011
672.177	0.0145741
672.255	0.0144910
672.333	0.0145638
672.411	0.0145545
672.489	0.0146194
672.568	0.0144862
672.646	0.0146713
672.724	0.0147945
672.802	0.0146725
672.880	0.0147544
672.958	0.0144544
673.036	0.0145758
673.114	0.0146835
673.193	0.0144959
673.271	0.0145423
673.349	0.0146606
673.427	0.0146577
673.505	0.0145444
673.583	0.0145630
673.661	0.0145602
673.739	0.0146233
673.818	0.0145375
673.896	0.0146747
673.974	0.0145852
674.052	0.0146865
674.130	0.0146045
674.208	0.0146550
674.286	0.0145798
674.364	0.0145197
674.443	0.0145981
674.521	0.0145753
674.599	0.0145889
674.677	0.0145873
674.755	0.0146052
674.833	0.0145163
674.911	0.0145352
674.989	0.0147076
675.068	0.0147379
675.146	0.0144973
675.224	0.0145564
675.302	0.0145843
675.380	0.0145640
675.458	0.0146788
675.536	0.0146777
675.614	0.0144938
675.693	0.0144328
675.771	0.0146529
675.849	0.0147209
675.927	0.0146706
676.005	0.0146516
676.083	0.0145560
676.161	0.0147756
676.239	0.0145756
676.318	0.0146426
676.396	0.0147992
676.474	0.0146004
676.552	0.0144984
676.630	0.0146353
676.708	0.0145382
676.786	0.0145351
676.864	0.0146008
676.943	0.0145810
677.021	0.0146582
677.099	0.0145915
677.177	0.0145238
677.255	0.0145872
677.333	0.0145703
677.411	0.0147032
677.489	0.0145574
677.568	0.0145541
677.646	0.0146449
677.724	0.0146117
677.802	0.0144624
677.880	0.0146307
677.958	0.0144037
678.036	0.0145692
678.114	0.0146255
678.193	0.0145357
678.271	0.0145343
678.349	0.0143855
678.427	0.0144044
678.505	0.0145670
678.583	0.0146904
678.661	0.0145663
678.739	0.0144613
678.818	0.0145020
678.896	0.0145535
678.974	0.0146938
679.052	0.0146391
679.130	0.0145313
679.208	0.0144729
679.286	0.0144704
679.364	0.0146033
679.443	0.0144873
679.521	0.0144903
679.599	0.0145570
679.677	0.0145074
679.755	0.0146914
679.833	0.0147344
679.911	0.0145339
679.989	0.0146809
680.068	0.0146519
680.146	0.0145466
680.224	0.0145860
680.302	0.0145879
680.380	0.0146344
680.458	0.0146339
680.536	0.0146329
680.614	0.0146677
680.693	0.0144991
680.771	0.0146175
680.849	0.0146758
680.927	0.0145403
681.005	0.0145411
681.083	0.0145580
681.161	0.0145922
681.239	0.0146223
681.318	0.0146413
681.396	0.0146354
681.474	0.0145000
681.552	0.0145330
681.630	0.0145032
681.708	0.0145493
681.786	0.0145567
681.864	0.0144531
681.943	0.0146779
682.021	0.0146156
682.099	0.0144913
682.177	0.0146046
682.255	0.0145289
682.333	0.0146986
682.411	0.0147058
682.489	0.0144149
682.568	0.0145111
682.646	0.0145649
682.724	0.0145589
682.802	0.0146682
682.880	0.0145489
682.958	0.0146672
683.036	0.0145036
683.114	0.0146169
683.193	0.0146490
683.271	0.0145520
683.349	0.0146014
683.427	0.0145942
683.505	0.0145851
683.583	0.0146078
683.661	0.0147777
683.739	0.0145840
683.818	0.0147380
683.896	0.0146291
683.974	0.0145470
684.052	0.0145972
684.130	0.0146679
684.208	0.0146964
684.286	0.0147583
684.364	0.0146629
684.443	0.0146457
684.521	0.0146398
684.599	0.0146641
684.677	0.0145564
684.755	0.0146477
684.833	0.0145845
684.911	0.0146368
684.989	0.0146310
685.068	0.0145455
685.146	0.0144624
685.224	0.0146346
685.302	0.0144420
685.380	0.0145971
685.458	0.0146911
685.536	0.0146179
685.614	0.0145939
685.693	0.0145909
685.771	0.0145255
685.849	0.0146233
685.927	0.0145917
686.005	0.0147048
686.083	0.0147155
686.161	0.0146242
686.239	0.0146630
686.318	0.0146625
686.396	0.0145618
686.474	0.0146217
686.552	0.0146330
686.630	0.0146751
686.708	0.0146391
686.786	0.0147395
686.864	0.0146594
686.943	0.0146342
687.021	0.0145408
687.099	0.0146880
687.177	0.0147048
687.255	0.0146989
687.333	0.0147541
687.411	0.0144341
687.489	0.0146677
687.568	0.0146254
687.646	0.0145292
687.724	0.0146035
687.802	0.0145710
687.880	0.0144264
687.958	0.0144420
688.036	0.0142810
688.114	0.0142458
688.193	0.0142294
688.271	0.0143529
688.349	0.0142047
688.427	0.0142648
688.505	0.0144765
688.583	0.0145651
688.661	0.0148050
688.739	0.0147134
688.818	0.0148184
688.896	0.0151855
688.974	0.0151833
689.052	0.0152981
689.130	0.0154338
689.208	0.0154745
689.286	0.0153544
689.364	0.0153394
689.443	0.0152678
689.521	0.0152399
689.599	0.0151907
689.677	0.0150059
689.755	0.0150460
689.833	0.0150271
689.911	0.0148129
689.989	0.0147142
690.068	0.0146323
690.146	0.0145769
690.224	0.0144375
690.302	0.0144447
690.380	0.0143426
690.458	0.0140154
690.536	0.0140140
690.614	0.0136569
690.693	0.0135128
690.771	0.0133638
690.849	0.0129886
690.927	0.0129028
691.005	0.0127600
691.083	0.0125872
691.161	0.0126962
691.239	0.0125876
691.318	0.0127187
691.396	0.0126999
691.474	0.0131957
691.552	0.0133566
691.630	0.0137923
691.708	0.0142361
691.786	0.0147531
691.864	0.0155656
691.943	0.0161170
692.021	0.0167822
692.099	0.0172057
692.177	0.0177592
692.255	0.0182510
692.333	0.0185154
692.411	0.0187360
692.489	0.0187435
692.568	0.0186587
692.646	0.0184840
692.724	0.0180899
692.802	0.0175496
692.880	0.0172839
692.958	0.0165070
693.036	0.0160164
693.114	0.0152833
693.193	0.0146028
693.271	0.0141338
693.349	0.0135196
693.427	0.0129327
693.505	0.0123943
693.583	0.0119427
693.661	0.0114742
693.739	0.0111845
693.818	0.0108677
693.896	0.0106468
693.974	0.0103736
694.052	0.0103461
694.130	0.0104143
694.208	0.0103432
694.286	0.0104369
694.364	0.0106494
694.443	0.0108440
694.521	0.0109926
694.599	0.0114515
694.677	0.0116870
694.755	0.0123526
694.833	0.0127354
694.911	0.0133804
694.989	0.0141011
695.068	0.0147617
695.146	0.0153725
695.224	0.0164565
695.302	0.0170883
695.380	0.0177165
695.458	0.0184837
695.536	0.0191283
695.614	0.0195278
695.693	0.0200068
695.771	0.0205524
695.849	0.0205981
695.927	0.0207059
696.005	0.0207943
696.083	0.0207623
696.161	0.0207143
696.239	0.0203645
696.318	0.0200372
696.396	0.0194180
696.474	0.0188391
696.552	0.0180431
696.630	0.0171326
696.708	0.0161057
696.786	0.0150642
696.864	0.0139580
696.943	0.0128297
697.021	0.0116823
697.099	0.0107457
697.177	0.00986153
697.255	0.00927811
697.333	0.00879288
697.411	0.00872177
697.489	0.00867020
697.568	0.00878036
697.646	0.00907784
697.724	0.00961357
697.802	0.0100191
697.880	0.0104841
697.958	0.0107675
698.036	0.0111095
698.114	0.0113215
698.193	0.0115160
698.271	0.0113267
698.349	0.0113650
698.427	0.0112121
698.505	0.0112590
698.583	0.0112006
698.661	0.0113749
698.739	0.0115214
698.818	0.0119274
698.896	0.0122820
698.974	0.0129613
699.052	0.0137449
699.130	0.0144532
699.208	0.0154312
699.286	0.0162906
699.364	0.0170662
699.443	0.0180594
699.521	0.0188783
699.599	0.0194862
699.677	0.0202010
699.755	0.0208620
699.833	0.0214649
699.911	0.0218087
699.989	0.0220023
700.068	0.0223463
700.146	0.0225435
700.224	0.0225557
700.302	0.0224258
700.380	0.0223242
700.458	0.0220305
700.536	0.0215179
700.614	0.0209561
700.693	0.0204465
700.771	0.0194759
700.849	0.0183430
700.927	0.0173995
701.005	0.0162122
701.083	0.0149915
701.161	0.0138155
701.239	0.0123705
701.318	0.0112232
701.396	0.0100986
701.474	0.00903297
701.552	0.00810654
701.630	0.00728409
701.708	0.00666458
701.786	0.00629906
701.864	0.00597755
701.943	0.00607658
702.021	0.00608681
702.099	0.00618256
702.177	0.00650314
702.255	0.00695656
702.333	0.00764023
702.411	0.00814674
702.489	0.00885620
702.568	0.00938553
702.646	0.0101388
702.724	0.0108811
702.802	0.0114478
702.880	0.0117507
702.958	0.0123132
703.036	0.0125980
703.114	0.0128421
703.193	0.0131557
703.271	0.0134644
703.349	0.0138799
703.427	0.0145966
703.505	0.0152467
703.583	0.0160899
703.661	0.0169488
703.739	0.0177967
703.818	0.0188789
703.896	0.0196453
703.974	0.0204272
704.052	0.0212847
704.130	0.0219302
704.208	0.0222270
704.286	0.0228229
704.364	0.0232437
704.443	0.0233525
704.521	0.0234578
704.599	0.0234310
704.677	0.0232058
704.755	0.0230439
704.833	0.0228087
704.911	0.0224654
704.989	0.0218669
705.068	0.0213290
705.146	0.0204860
705.224	0.0198060
705.302	0.0188091
705.380	0.0176134
705.458	0.0163708
705.536	0.0150493
705.614	0.0135586
705.693	0.0123273
705.771	0.0108665
705.849	0.00967468
705.927	0.00845665
706.005	0.00731720
706.083	0.00639359
706.161	0.00566597
706.239	0.00507851
706.318	0.00486145
706.396	0.00474808
706.474	0.00463646
706.552	0.00494339
706.630	0.00522980
706.708	0.00577919
706.786	0.00652481
706.864	0.00748795
706.943	0.00822815
707.021	0.00904587
707.099	0.0101180
707.177	0.0112485
707.255	0.0121286
707.333	0.0129391
707.411	0.0136270
707.489	0.0143849
707.568	0.0149545
707.646	0.0155406
707.724	0.0158041
707.802	0.0159756
707.880	0.0162894
707.958	0.0164454
708.036	0.0164374
708.114	0.0167253
708.193	0.0167697
708.271	0.0168541
708.349	0.0171175
708.427	0.0173946
708.505	0.0179266
708.583	0.0183038
708.661	0.0186536
708.739	0.0191525
708.818	0.0195368
708.896	0.0198470
708.974	0.0202133
709.052	0.0205792
709.130	0.0204115
709.208	0.0206154
709.286	0.0206780
709.364	0.0205466
709.443	0.0203637
709.521	0.0200034
709.599	0.0198119
709.677	0.0194379
709.755	0.0190894
709.833	0.0187116
709.911	0.0180912
709.989	0.0177016
710.068	0.0172497
710.146	0.0167597
710.224	0.0160412
710.302	0.0154657
710.380	0.0147032
710.458	0.0137181
710.536	0.0128992
710.614	0.0122607
710.693	0.0112037
710.771	0.0104262
710.849	0.00962898
710.927	0.00894852
711.005	0.00842102
711.083	0.00785873
711.161	0.00745422
711.239	0.00745995
711.318	0.00751534
711.396	0.00768402
711.474	0.00801239
711.552	0.00866524
711.630	0.00922768
711.708	0.00986145
711.786	0.0104942
711.864	0.0113188
711.943	0.0117572
712.021	0.0126608
712.099	0.0133421
712.177	0.0138389
712.255	0.0144138
712.333	0.0147889
712.411	0.0151592
712.489	0.0156779
712.568	0.0158062
712.646	0.0161224
712.724	0.0162203
712.802	0.0162583
712.880	0.0163473
712.958	0.0164110
713.036	0.0162879
713.114	0.0162076
713.193	0.0160925
713.271	0.0159777
713.349	0.0157526
713.427	0.0158210
713.505	0.0158675
713.583	0.0159117
713.661	0.0158402
713.739	0.0160995
713.818	0.0162101
713.896	0.0165010
713.974	0.0167673
714.052	0.0170944
714.130	0.0173119
714.208	0.0175433
714.286	0.0177674
714.364	0.0178040
714.443	0.0178934
714.521	0.0180194
714.599	0.0180643
714.677	0.0178944
714.755	0.0178794
714.833	0.0177653
714.911	0.0177582
714.989	0.0174716
715.068	0.0170772
715.146	0.0169067
715.224	0.0162978
715.302	0.0159914
715.380	0.0154936
715.458	0.0147388
715.536	0.0141174
715.614	0.0135557
715.693	0.0129257
715.771	0.0122648
715.849	0.0116839
715.927	0.0112288
716.005	0.0107289
716.083	0.0103988
716.161	0.0102372
716.239	0.0101540
716.318	0.0102345
716.396	0.0105046
716.474	0.0106185
716.552	0.0111121
716.630	0.0115170
716.708	0.0119449
716.786	0.0126096
716.864	0.0130105
716.943	0.0133820
717.021	0.0136974
717.099	0.0142764
717.177	0.0144408
717.255	0.0148483
717.333	0.0150285
717.411	0.0152180
717.489	0.0154462
717.568	0.0155230
717.646	0.0155991
717.724	0.0156927
717.802	0.0154642
717.880	0.0153876
717.958	0.0153329
718.036	0.0151444
718.114	0.0150172
718.193	0.0148264
718.271	0.0146799
718.349	0.0144852
718.427	0.0146310
718.505	0.0145202
718.583	0.0145571
718.661	0.0144961
718.739	0.0145797
718.818	0.0148910
718.896	0.0150043
718.974	0.0152343
719.052	0.0153178
719.130	0.0156261
719.208	0.0156919
719.286	0.0160377
719.364	0.0160431
719.443	0.0162801
719.521	0.0162515
719.599	0.0162010
719.677	0.0163322
719.755	0.0164543
719.833	0.0163066
719.911	0.0160356
719.989	0.0159686
720.068	0.0159851
720.146	0.0156926
720.224	0.0153680
720.302	0.0151330
720.380	0.0148626
720.458	0.0145377
720.536	0.0144061
720.614	0.0141497
720.693	0.0137737
720.771	0.0138127
720.849	0.0135143
720.927	0.0135250
721.005	0.0133530
721.083	0.0132395
721.161	0.0133744
721.239	0.0132998
721.318	0.0133472
721.396	0.0134126
721.474	0.0135020
721.552	0.0135985
721.630	0.0137726
721.708	0.0138772
721.786	0.0141802
721.864	0.0142993
721.943	0.0145176
722.021	0.0146459
722.099	0.0147277
722.177	0.0148946
722.255	0.0151814
722.333	0.0151852
722.411	0.0150968
722.489	0.0151622
722.568	0.0150879
722.646	0.0149055
722.724	0.0147265
722.802	0.0144926
722.880	0.0145073
722.958	0.0143977
723.036	0.0142043
723.114	0.0140930
723.193	0.0140368
723.271	0.0141203
723.349	0.0142189
723.427	0.0142209
723.505	0.0143147
723.583	0.0143702
723.661	0.0145614
723.739	0.0144994
723.818	0.0145361
723.896	0.0146468
723.974	0.0146816
724.052	0.0146469
724.130	0.0146101
724.208	0.0145535
724.286	0.0145988
724.364	0.0147968
724.443	0.0147500
724.521	0.0147826
724.599	0.0148172
724.677	0.0151824
724.755	0.0151771
724.833	0.0151889
724.911	0.0153961
724.989	0.0153527
725.068	0.0155195
725.146	0.0154589
725.224	0.0154514
725.302	0.0153195
725.380	0.0152056
725.458	0.0148853
