05/20/2022	16:12:56	Ver.	4.1	UNKNOWN
Optical Delay	639.982744	Delta X		0.078125	Sweeps	1	Scan Rate	0/0
Coordinates	Axis 1	NaN	Axis 2	NaN	Axis 3	NaN	Axis 4	NaN	Axis 5	NaN	Axis 6	0.000000
TX Power	0.000000	RX Power	0.000000

639.983	0.0140574
640.061	0.0138927
640.139	0.0140768
640.217	0.0139761
640.295	0.0140327
640.373	0.0141164
640.451	0.0141017
640.530	0.0140105
640.608	0.0140739
640.686	0.0141132
640.764	0.0142266
640.842	0.0140800
640.920	0.0141068
640.998	0.0140378
641.076	0.0140900
641.155	0.0140719
641.233	0.0142165
641.311	0.0141842
641.389	0.0140646
641.467	0.0140016
641.545	0.0140090
641.623	0.0140761
641.701	0.0142138
641.780	0.0141029
641.858	0.0141624
641.936	0.0139436
642.014	0.0140154
642.092	0.0140007
642.170	0.0140589
642.248	0.0141392
642.326	0.0140448
642.405	0.0141437
642.483	0.0141927
642.561	0.0140371
642.639	0.0141031
642.717	0.0141241
642.795	0.0141051
642.873	0.0140016
642.951	0.0141627
643.030	0.0141659
643.108	0.0139714
643.186	0.0141758
643.264	0.0139929
643.342	0.0139859
643.420	0.0141112
643.498	0.0140308
643.576	0.0140332
643.655	0.0140800
643.733	0.0140694
643.811	0.0139771
643.889	0.0140710
643.967	0.0140043
644.045	0.0140543
644.123	0.0140161
644.201	0.0140402
644.280	0.0140722
644.358	0.0141163
644.436	0.0141311
644.514	0.0140988
644.592	0.0140939
644.670	0.0139726
644.748	0.0140125
644.826	0.0139883
644.905	0.0140989
644.983	0.0140869
645.061	0.0140620
645.139	0.0140306
645.217	0.0139667
645.295	0.0140104
645.373	0.0140069
645.451	0.0139932
645.530	0.0141171
645.608	0.0140435
645.686	0.0139462
645.764	0.0140718
645.842	0.0141020
645.920	0.0140903
645.998	0.0141346
646.076	0.0141792
646.155	0.0140016
646.233	0.0139871
646.311	0.0141092
646.389	0.0140093
646.467	0.0141605
646.545	0.0141101
646.623	0.0139281
646.701	0.0139466
646.780	0.0139889
646.858	0.0140898
646.936	0.0141252
647.014	0.0141157
647.092	0.0140791
647.170	0.0139612
647.248	0.0140117
647.326	0.0140416
647.405	0.0141360
647.483	0.0141161
647.561	0.0141153
647.639	0.0140399
647.717	0.0139497
647.795	0.0140709
647.873	0.0140158
647.951	0.0140455
648.030	0.0140311
648.108	0.0141068
648.186	0.0140522
648.264	0.0140835
648.342	0.0140909
648.420	0.0141012
648.498	0.0141199
648.576	0.0140291
648.655	0.0140347
648.733	0.0138973
648.811	0.0140878
648.889	0.0140112
648.967	0.0141275
649.045	0.0140118
649.123	0.0141572
649.201	0.0140641
649.280	0.0139841
649.358	0.0140028
649.436	0.0141068
649.514	0.0141897
649.592	0.0141779
649.670	0.0140332
649.748	0.0142170
649.826	0.0139648
649.905	0.0140123
649.983	0.0140813
650.061	0.0140549
650.139	0.0139642
650.217	0.0140723
650.295	0.0141396
650.373	0.0139372
650.451	0.0139642
650.530	0.0142429
650.608	0.0141105
650.686	0.0140641
650.764	0.0141839
650.842	0.0141223
650.920	0.0141763
650.998	0.0140674
651.076	0.0141755
651.155	0.0139797
651.233	0.0141180
651.311	0.0140604
651.389	0.0142019
651.467	0.0140147
651.545	0.0140443
651.623	0.0138759
651.701	0.0139485
651.780	0.0142139
651.858	0.0140782
651.936	0.0141814
652.014	0.0140624
652.092	0.0139869
652.170	0.0141386
652.248	0.0141207
652.326	0.0141515
652.405	0.0141398
652.483	0.0140993
652.561	0.0140516
652.639	0.0141342
652.717	0.0141739
652.795	0.0141746
652.873	0.0140852
652.951	0.0140471
653.030	0.0141724
653.108	0.0139820
653.186	0.0140635
653.264	0.0141196
653.342	0.0141069
653.420	0.0140717
653.498	0.0140181
653.576	0.0141096
653.655	0.0141028
653.733	0.0141073
653.811	0.0141615
653.889	0.0140791
653.967	0.0140507
654.045	0.0141171
654.123	0.0142487
654.201	0.0141585
654.280	0.0141567
654.358	0.0141235
654.436	0.0141227
654.514	0.0141991
654.592	0.0142420
654.670	0.0141096
654.748	0.0140598
654.826	0.0141866
654.905	0.0141425
654.983	0.0141373
655.061	0.0142034
655.139	0.0141689
655.217	0.0141367
655.295	0.0140693
655.373	0.0140773
655.451	0.0142211
655.530	0.0141360
655.608	0.0140547
655.686	0.0140416
655.764	0.0140441
655.842	0.0141357
655.920	0.0141493
655.998	0.0140806
656.076	0.0140675
656.155	0.0140408
656.233	0.0141425
656.311	0.0140585
656.389	0.0139782
656.467	0.0141707
656.545	0.0142925
656.623	0.0140286
656.701	0.0139846
656.780	0.0140141
656.858	0.0140915
656.936	0.0140527
657.014	0.0142094
657.092	0.0140833
657.170	0.0140622
657.248	0.0142094
657.326	0.0140832
657.405	0.0140782
657.483	0.0141447
657.561	0.0141501
657.639	0.0140270
657.717	0.0141776
657.795	0.0140350
657.873	0.0140710
657.951	0.0140451
658.030	0.0141207
658.108	0.0141618
658.186	0.0140926
658.264	0.0141525
658.342	0.0142355
658.420	0.0141145
658.498	0.0140049
658.576	0.0141351
658.655	0.0141729
658.733	0.0141649
658.811	0.0140463
658.889	0.0141089
658.967	0.0141961
659.045	0.0141211
659.123	0.0141036
659.201	0.0140231
659.280	0.0139950
659.358	0.0140978
659.436	0.0140005
659.514	0.0140804
659.592	0.0141320
659.670	0.0140198
659.748	0.0140733
659.826	0.0140231
659.905	0.0141858
659.983	0.0139945
660.061	0.0140006
660.139	0.0140938
660.217	0.0141669
660.295	0.0140302
660.373	0.0138952
660.451	0.0139549
660.530	0.0140887
660.608	0.0141647
660.686	0.0140828
660.764	0.0140953
660.842	0.0140453
660.920	0.0140764
660.998	0.0141971
661.076	0.0141373
661.155	0.0140343
661.233	0.0140750
661.311	0.0142046
661.389	0.0140881
661.467	0.0141067
661.545	0.0140643
661.623	0.0140282
661.701	0.0140894
661.780	0.0141791
661.858	0.0140965
661.936	0.0140339
662.014	0.0140223
662.092	0.0141933
662.170	0.0141119
662.248	0.0141331
662.326	0.0140725
662.405	0.0141903
662.483	0.0143011
662.561	0.0141071
662.639	0.0138383
662.717	0.0140481
662.795	0.0141323
662.873	0.0140795
662.951	0.0141179
663.030	0.0142156
663.108	0.0141721
663.186	0.0140195
663.264	0.0140898
663.342	0.0142474
663.420	0.0140701
663.498	0.0141080
663.576	0.0141755
663.655	0.0140366
663.733	0.0141077
663.811	0.0141622
663.889	0.0141864
663.967	0.0142094
664.045	0.0141620
664.123	0.0141355
664.201	0.0141327
664.280	0.0141231
664.358	0.0141114
664.436	0.0141473
664.514	0.0141632
664.592	0.0139976
664.670	0.0140915
664.748	0.0142429
664.826	0.0143186
664.905	0.0141285
664.983	0.0140971
665.061	0.0140821
665.139	0.0141613
665.217	0.0141125
665.295	0.0141621
665.373	0.0142880
665.451	0.0141591
665.530	0.0140403
665.608	0.0140032
665.686	0.0141597
665.764	0.0141772
665.842	0.0140922
665.920	0.0140713
665.998	0.0140388
666.076	0.0141071
666.155	0.0141888
666.233	0.0141463
666.311	0.0141103
666.389	0.0141290
666.467	0.0141516
666.545	0.0140842
666.623	0.0140839
666.701	0.0141569
666.780	0.0142421
666.858	0.0139539
666.936	0.0140029
667.014	0.0140130
667.092	0.0140622
667.170	0.0141562
667.248	0.0140246
667.326	0.0139984
667.405	0.0139650
667.483	0.0140340
667.561	0.0140060
667.639	0.0141090
667.717	0.0140894
667.795	0.0139969
667.873	0.0141399
667.951	0.0141416
668.030	0.0140655
668.108	0.0141138
668.186	0.0140483
668.264	0.0140762
668.342	0.0140253
668.420	0.0141339
668.498	0.0140591
668.576	0.0140868
668.655	0.0139927
668.733	0.0141878
668.811	0.0140893
668.889	0.0141186
668.967	0.0141983
669.045	0.0140250
669.123	0.0140987
669.201	0.0140796
669.280	0.0139790
669.358	0.0142423
669.436	0.0140690
669.514	0.0141680
669.592	0.0140752
669.670	0.0139478
669.748	0.0141172
669.826	0.0141729
669.905	0.0141377
669.983	0.0140688
670.061	0.0142022
670.139	0.0140774
670.217	0.0140001
670.295	0.0141824
670.373	0.0141659
670.451	0.0141457
670.530	0.0140572
670.608	0.0141467
670.686	0.0141194
670.764	0.0140264
670.842	0.0138587
670.920	0.0141105
670.998	0.0141129
671.076	0.0140262
671.155	0.0140991
671.233	0.0141042
671.311	0.0141260
671.389	0.0141547
671.467	0.0141967
671.545	0.0140251
671.623	0.0141184
671.701	0.0141131
671.780	0.0140205
671.858	0.0139730
671.936	0.0141362
672.014	0.0142374
672.092	0.0141180
672.170	0.0142119
672.248	0.0140178
672.326	0.0140734
672.405	0.0140604
672.483	0.0141748
672.561	0.0140867
672.639	0.0141832
672.717	0.0142380
672.795	0.0141186
672.873	0.0141992
672.951	0.0140672
673.030	0.0140823
673.108	0.0142886
673.186	0.0140790
673.264	0.0140099
673.342	0.0139894
673.420	0.0141535
673.498	0.0142273
673.576	0.0141000
673.655	0.0141935
673.733	0.0141032
673.811	0.0140488
673.889	0.0140744
673.967	0.0141382
674.045	0.0141265
674.123	0.0141328
674.201	0.0141203
674.280	0.0141667
674.358	0.0141706
674.436	0.0141252
674.514	0.0142889
674.592	0.0141003
674.670	0.0140993
674.748	0.0142645
674.826	0.0141677
674.905	0.0140737
674.983	0.0141375
675.061	0.0142406
675.139	0.0140865
675.217	0.0140549
675.295	0.0141590
675.373	0.0141277
675.451	0.0142763
675.530	0.0140697
675.608	0.0140944
675.686	0.0142036
675.764	0.0141581
675.842	0.0141203
675.920	0.0139909
675.998	0.0141394
676.076	0.0141563
676.155	0.0141221
676.233	0.0140993
676.311	0.0141134
676.389	0.0140637
676.467	0.0141642
676.545	0.0141139
676.623	0.0140943
676.701	0.0141515
676.780	0.0141408
676.858	0.0141207
676.936	0.0140950
677.014	0.0139757
677.092	0.0140961
677.170	0.0141249
677.248	0.0140582
677.326	0.0139696
677.405	0.0140739
677.483	0.0140362
677.561	0.0141408
677.639	0.0141800
677.717	0.0141128
677.795	0.0141408
677.873	0.0141338
677.951	0.0140922
678.030	0.0141083
678.108	0.0140142
678.186	0.0139948
678.264	0.0139204
678.342	0.0139280
678.420	0.0141180
678.498	0.0139314
678.576	0.0139283
678.655	0.0140748
678.733	0.0140847
678.811	0.0140063
678.889	0.0139890
678.967	0.0141196
679.045	0.0139827
679.123	0.0139722
679.201	0.0139852
679.280	0.0139733
679.358	0.0140230
679.436	0.0140517
679.514	0.0139570
679.592	0.0139496
679.670	0.0141014
679.748	0.0140794
679.826	0.0140765
679.905	0.0140314
679.983	0.0139804
680.061	0.0140146
680.139	0.0139465
680.217	0.0140523
680.295	0.0140652
680.373	0.0139680
680.451	0.0140806
680.530	0.0140171
680.608	0.0140167
680.686	0.0139987
680.764	0.0141800
680.842	0.0141857
680.920	0.0139896
680.998	0.0139630
681.076	0.0138742
681.155	0.0140448
681.233	0.0139786
681.311	0.0141067
681.389	0.0139700
681.467	0.0141241
681.545	0.0139591
681.623	0.0139160
681.701	0.0139457
681.780	0.0140010
681.858	0.0141252
681.936	0.0141093
682.014	0.0139596
682.092	0.0139822
682.170	0.0139061
682.248	0.0139989
682.326	0.0139889
682.405	0.0139774
682.483	0.0139920
682.561	0.0139922
682.639	0.0139362
682.717	0.0141132
682.795	0.0140186
682.873	0.0141177
682.951	0.0141563
683.030	0.0140923
683.108	0.0140306
683.186	0.0140566
683.264	0.0141581
683.342	0.0140223
683.420	0.0140824
683.498	0.0141026
683.576	0.0141595
683.655	0.0141827
683.733	0.0141502
683.811	0.0140189
683.889	0.0140433
683.967	0.0141367
684.045	0.0141230
684.123	0.0141527
684.201	0.0139803
684.280	0.0140094
684.358	0.0141013
684.436	0.0140916
684.514	0.0141228
684.592	0.0140398
684.670	0.0141623
684.748	0.0141270
684.826	0.0139771
684.905	0.0139831
684.983	0.0139407
685.061	0.0141076
685.139	0.0139954
685.217	0.0140762
685.295	0.0141850
685.373	0.0141292
685.451	0.0141276
685.530	0.0142509
685.608	0.0141272
685.686	0.0141531
685.764	0.0142893
685.842	0.0142470
685.920	0.0141490
685.998	0.0141883
686.076	0.0141600
686.155	0.0141379
686.233	0.0141502
686.311	0.0141095
686.389	0.0139013
686.467	0.0139001
686.545	0.0139600
686.623	0.0139093
686.701	0.0140742
686.780	0.0139668
686.858	0.0139163
686.936	0.0138696
687.014	0.0139428
687.092	0.0140692
687.170	0.0139277
687.248	0.0139920
687.326	0.0139210
687.405	0.0140679
687.483	0.0139285
687.561	0.0139563
687.639	0.0139470
687.717	0.0140322
687.795	0.0140789
687.873	0.0141521
687.951	0.0140894
688.030	0.0141195
688.108	0.0142311
688.186	0.0141525
688.264	0.0141872
688.342	0.0143683
688.420	0.0143536
688.498	0.0143259
688.576	0.0145640
688.655	0.0147417
688.733	0.0145279
688.811	0.0146032
688.889	0.0146115
688.967	0.0145347
689.045	0.0147816
689.123	0.0145526
689.201	0.0143373
689.280	0.0140739
689.358	0.0139199
689.436	0.0138487
689.514	0.0136776
689.592	0.0133748
689.670	0.0133137
689.748	0.0130960
689.826	0.0130605
689.905	0.0131284
689.983	0.0133984
690.061	0.0134265
690.139	0.0134345
690.217	0.0134480
690.295	0.0136628
690.373	0.0136197
690.451	0.0138865
690.530	0.0138615
690.608	0.0139619
690.686	0.0139185
690.764	0.0140417
690.842	0.0139156
690.920	0.0139635
690.998	0.0138792
691.076	0.0139896
691.155	0.0140730
691.233	0.0141210
691.311	0.0142684
691.389	0.0145391
691.467	0.0145639
691.545	0.0149418
691.623	0.0149460
691.701	0.0151991
691.780	0.0153294
691.858	0.0154345
691.936	0.0153228
692.014	0.0153931
692.092	0.0153825
692.170	0.0152916
692.248	0.0151349
692.326	0.0152173
692.405	0.0152476
692.483	0.0150754
692.561	0.0151031
692.639	0.0149085
692.717	0.0147485
692.795	0.0147344
692.873	0.0146852
692.951	0.0144926
693.030	0.0143684
693.108	0.0141999
693.186	0.0139154
693.264	0.0135596
693.342	0.0133488
693.420	0.0130570
693.498	0.0127249
693.576	0.0123849
693.655	0.0120683
693.733	0.0116539
693.811	0.0111436
693.889	0.0110503
693.967	0.0107895
694.045	0.0103391
694.123	0.0103687
694.201	0.0102045
694.280	0.0104879
694.358	0.0106854
694.436	0.0109859
694.514	0.0114739
694.592	0.0121311
694.670	0.0128810
694.748	0.0137215
694.826	0.0145451
694.905	0.0153979
694.983	0.0162363
695.061	0.0168429
695.139	0.0175299
695.217	0.0181532
695.295	0.0185619
695.373	0.0189662
695.451	0.0193475
695.530	0.0194556
695.608	0.0196796
695.686	0.0196988
695.764	0.0194375
695.842	0.0194188
695.920	0.0190562
695.998	0.0186892
696.076	0.0181774
696.155	0.0175729
696.233	0.0169079
696.311	0.0160605
696.389	0.0152635
696.467	0.0142146
696.545	0.0131657
696.623	0.0122997
696.701	0.0113991
696.780	0.0104488
696.858	0.00978035
696.936	0.00920334
697.014	0.00857628
697.092	0.00834991
697.170	0.00850098
697.248	0.00848846
697.326	0.00880447
697.405	0.00930626
697.483	0.00969994
697.561	0.0104684
697.639	0.0110820
697.717	0.0117390
697.795	0.0121320
697.873	0.0125251
697.951	0.0126519
698.030	0.0130415
698.108	0.0129939
698.186	0.0129676
698.264	0.0130051
698.342	0.0127992
698.420	0.0128603
698.498	0.0128065
698.576	0.0128957
698.655	0.0130118
698.733	0.0133516
698.811	0.0137708
698.889	0.0141488
698.967	0.0145400
699.045	0.0151896
699.123	0.0157807
699.201	0.0163062
699.280	0.0170194
699.358	0.0176775
699.436	0.0180608
699.514	0.0185051
699.592	0.0188761
699.670	0.0192609
699.748	0.0196468
699.826	0.0198028
699.905	0.0198315
699.983	0.0197931
700.061	0.0197429
700.139	0.0194605
700.217	0.0192039
700.295	0.0187560
700.373	0.0184042
700.451	0.0180157
700.530	0.0173311
700.608	0.0165348
700.686	0.0159015
700.764	0.0151039
700.842	0.0142785
700.920	0.0134240
700.998	0.0126519
701.076	0.0118359
701.155	0.0110268
701.233	0.0102947
701.311	0.00974899
701.389	0.00925720
701.467	0.00879456
701.545	0.00860146
701.623	0.00843216
701.701	0.00840546
701.780	0.00842323
701.858	0.00853424
701.936	0.00869698
702.014	0.00916702
702.092	0.00943787
702.170	0.00949059
702.248	0.00984451
702.326	0.0101421
702.405	0.0103944
702.483	0.0107116
702.561	0.0108682
702.639	0.0111596
702.717	0.0111567
702.795	0.0114311
702.873	0.0115678
702.951	0.0119675
703.030	0.0121217
703.108	0.0125895
703.186	0.0131908
703.264	0.0136795
703.342	0.0143499
703.420	0.0151279
703.498	0.0158129
703.576	0.0165781
703.655	0.0172482
703.733	0.0179433
703.811	0.0183247
703.889	0.0186974
703.967	0.0191221
704.045	0.0193418
704.123	0.0195295
704.201	0.0193710
704.280	0.0196540
704.358	0.0197924
704.436	0.0199674
704.514	0.0201406
704.592	0.0201485
704.670	0.0203558
704.748	0.0205669
704.826	0.0206217
704.905	0.0204147
704.983	0.0203846
705.061	0.0201221
705.139	0.0196725
705.217	0.0189085
705.295	0.0179781
705.373	0.0170251
705.451	0.0157619
705.530	0.0146736
705.608	0.0135189
705.686	0.0120673
705.764	0.0110215
705.842	0.00999519
705.920	0.00882919
705.998	0.00805168
706.076	0.00737648
706.155	0.00690819
706.233	0.00642311
706.311	0.00632019
706.389	0.00628532
706.467	0.00638023
706.545	0.00674911
706.623	0.00723427
706.701	0.00758682
706.780	0.00813934
706.858	0.00877228
706.936	0.00934532
707.014	0.0100046
707.092	0.0104857
707.170	0.0110182
707.248	0.0115044
707.326	0.0119712
707.405	0.0123493
707.483	0.0128988
707.561	0.0130736
707.639	0.0134682
707.717	0.0135394
707.795	0.0138824
707.873	0.0140336
707.951	0.0141554
708.030	0.0142984
708.108	0.0143665
708.186	0.0144359
708.264	0.0146661
708.342	0.0147920
708.420	0.0151068
708.498	0.0152496
708.576	0.0159035
708.655	0.0163534
708.733	0.0168560
708.811	0.0175423
708.889	0.0181026
708.967	0.0188495
709.045	0.0195470
709.123	0.0200208
709.201	0.0203841
709.280	0.0207542
709.358	0.0208835
709.436	0.0208777
709.514	0.0207937
709.592	0.0206221
709.670	0.0202486
709.748	0.0199385
709.826	0.0194892
709.905	0.0191099
709.983	0.0185001
710.061	0.0182305
710.139	0.0178011
710.217	0.0173209
710.295	0.0167055
710.373	0.0161445
710.451	0.0157793
710.530	0.0150258
710.608	0.0143509
710.686	0.0134728
710.764	0.0124912
710.842	0.0114777
710.920	0.0102704
710.998	0.00939880
711.076	0.00842758
711.155	0.00744614
711.233	0.00678665
711.311	0.00623940
711.389	0.00593323
711.467	0.00589027
711.545	0.00611862
711.623	0.00626213
711.701	0.00661972
711.780	0.00729492
711.858	0.00812233
711.936	0.00886467
712.014	0.00950478
712.092	0.0103685
712.170	0.0110622
712.248	0.0117250
712.326	0.0124036
712.405	0.0132352
712.483	0.0136379
712.561	0.0138737
712.639	0.0143280
712.717	0.0149014
712.795	0.0152074
712.873	0.0154360
712.951	0.0157868
713.030	0.0158853
713.108	0.0159798
713.186	0.0157705
713.264	0.0157455
713.342	0.0157018
713.420	0.0155630
713.498	0.0151965
713.576	0.0151665
713.655	0.0149757
713.733	0.0148537
713.811	0.0148380
713.889	0.0150044
713.967	0.0152161
714.045	0.0156001
714.123	0.0158994
714.201	0.0161916
714.280	0.0167806
714.358	0.0173672
714.436	0.0179514
714.514	0.0182427
714.592	0.0189125
714.670	0.0190953
714.748	0.0192596
714.826	0.0193290
714.905	0.0192832
714.983	0.0190525
715.061	0.0187519
715.139	0.0184111
715.217	0.0178433
715.295	0.0171204
715.373	0.0166942
715.451	0.0160047
715.530	0.0154375
715.608	0.0149423
715.686	0.0144243
715.764	0.0139566
715.842	0.0134186
715.920	0.0130602
715.998	0.0126773
716.076	0.0122366
716.155	0.0118166
716.233	0.0112706
716.311	0.0110171
716.389	0.0105727
716.467	0.0102926
716.545	0.0100445
716.623	0.00959213
716.701	0.00942337
716.780	0.00944237
716.858	0.00946350
716.936	0.00940720
717.014	0.00948135
717.092	0.00971008
717.170	0.00998215
717.248	0.0103456
717.326	0.0109399
717.405	0.0113729
717.483	0.0117439
717.561	0.0123614
717.639	0.0126908
717.717	0.0129411
717.795	0.0133062
717.873	0.0136185
717.951	0.0140401
718.030	0.0143961
718.108	0.0147179
718.186	0.0149674
718.264	0.0152586
718.342	0.0156123
718.420	0.0156941
718.498	0.0157520
718.576	0.0158764
718.655	0.0159985
718.733	0.0157654
718.811	0.0154716
718.889	0.0153193
718.967	0.0150357
719.045	0.0146019
719.123	0.0142187
719.201	0.0140544
719.280	0.0137800
719.358	0.0135954
719.436	0.0133920
719.514	0.0136008
719.592	0.0137799
719.670	0.0139834
719.748	0.0144051
719.826	0.0150169
719.905	0.0154752
719.983	0.0160467
720.061	0.0165015
720.139	0.0168958
720.217	0.0172717
720.295	0.0175760
720.373	0.0175372
720.451	0.0176982
720.530	0.0174258
720.608	0.0171993
720.686	0.0167765
720.764	0.0163521
720.842	0.0160300
720.920	0.0155199
720.998	0.0150450
721.076	0.0146711
721.155	0.0143030
721.233	0.0140361
721.311	0.0138380
721.389	0.0136120
721.467	0.0136662
721.545	0.0135825
721.623	0.0134173
721.701	0.0132861
721.780	0.0131532
721.858	0.0131644
721.936	0.0129478
722.014	0.0127196
722.092	0.0125826
722.170	0.0124380
722.248	0.0122007
722.326	0.0123766
722.405	0.0120464
722.483	0.0119799
722.561	0.0117071
722.639	0.0119220
722.717	0.0119726
722.795	0.0121198
722.873	0.0122112
722.951	0.0121765
723.030	0.0124797
723.108	0.0126691
723.186	0.0128299
723.264	0.0129636
723.342	0.0132555
723.420	0.0135121
723.498	0.0137236
723.576	0.0138710
723.655	0.0143793
723.733	0.0146278
723.811	0.0147554
723.889	0.0148485
723.967	0.0148602
724.045	0.0150004
724.123	0.0149887
724.201	0.0151454
724.280	0.0147758
724.358	0.0148617
724.436	0.0145822
724.514	0.0142504
724.592	0.0142518
724.670	0.0141292
724.748	0.0139639
724.826	0.0139072
724.905	0.0139172
724.983	0.0138626
725.061	0.0140303
725.139	0.0141462
725.217	0.0141094
725.295	0.0144180
725.373	0.0145710
725.451	0.0147346
