05/20/2022	16:14:36	Ver.	4.1	UNKNOWN
Optical Delay	639.982744	Delta X		0.078125	Sweeps	1	Scan Rate	0/0
Coordinates	Axis 1	NaN	Axis 2	NaN	Axis 3	NaN	Axis 4	NaN	Axis 5	NaN	Axis 6	0.000000
TX Power	0.000000	RX Power	0.000000

639.983	0.0141364
640.061	0.0141914
640.139	0.0142234
640.217	0.0142307
640.295	0.0140821
640.373	0.0142252
640.451	0.0143053
640.530	0.0141874
640.608	0.0141865
640.686	0.0141599
640.764	0.0140307
640.842	0.0140049
640.920	0.0142217
640.998	0.0142881
641.076	0.0140314
641.155	0.0141210
641.233	0.0142312
641.311	0.0142562
641.389	0.0142126
641.467	0.0141013
641.545	0.0141030
641.623	0.0141414
641.701	0.0141410
641.780	0.0141273
641.858	0.0141389
641.936	0.0140943
642.014	0.0141111
642.092	0.0141441
642.170	0.0141176
642.248	0.0140243
642.326	0.0141332
642.405	0.0142226
642.483	0.0140959
642.561	0.0141478
642.639	0.0142815
642.717	0.0141523
642.795	0.0141705
642.873	0.0140081
642.951	0.0141984
643.030	0.0141704
643.108	0.0141466
643.186	0.0141486
643.264	0.0142559
643.342	0.0142161
643.420	0.0141119
643.498	0.0141913
643.576	0.0140790
643.655	0.0140745
643.733	0.0141485
643.811	0.0140695
643.889	0.0141740
643.967	0.0140183
644.045	0.0141898
644.123	0.0141256
644.201	0.0141604
644.280	0.0140880
644.358	0.0141864
644.436	0.0140805
644.514	0.0141791
644.592	0.0141460
644.670	0.0140864
644.748	0.0141897
644.826	0.0143153
644.905	0.0142137
644.983	0.0140492
645.061	0.0141271
645.139	0.0142071
645.217	0.0141391
645.295	0.0141091
645.373	0.0142147
645.451	0.0140973
645.530	0.0142034
645.608	0.0141918
645.686	0.0140220
645.764	0.0139541
645.842	0.0140841
645.920	0.0141862
645.998	0.0142003
646.076	0.0141558
646.155	0.0140837
646.233	0.0141212
646.311	0.0140285
646.389	0.0140862
646.467	0.0141183
646.545	0.0141656
646.623	0.0141612
646.701	0.0140832
646.780	0.0141711
646.858	0.0140860
646.936	0.0141106
647.014	0.0140005
647.092	0.0139905
647.170	0.0141516
647.248	0.0141499
647.326	0.0140217
647.405	0.0141514
647.483	0.0140242
647.561	0.0141670
647.639	0.0141487
647.717	0.0141905
647.795	0.0140141
647.873	0.0141306
647.951	0.0140822
648.030	0.0142490
648.108	0.0140762
648.186	0.0140432
648.264	0.0141193
648.342	0.0141270
648.420	0.0140607
648.498	0.0140251
648.576	0.0141185
648.655	0.0141956
648.733	0.0140629
648.811	0.0140817
648.889	0.0141244
648.967	0.0140934
649.045	0.0140975
649.123	0.0140620
649.201	0.0139594
649.280	0.0139455
649.358	0.0140527
649.436	0.0141334
649.514	0.0140444
649.592	0.0140563
649.670	0.0140265
649.748	0.0140592
649.826	0.0140871
649.905	0.0141611
649.983	0.0141290
650.061	0.0142971
650.139	0.0140423
650.217	0.0141113
650.295	0.0141716
650.373	0.0141071
650.451	0.0141746
650.530	0.0141518
650.608	0.0140962
650.686	0.0141387
650.764	0.0141312
650.842	0.0141628
650.920	0.0141560
650.998	0.0140639
651.076	0.0141279
651.155	0.0142590
651.233	0.0140641
651.311	0.0142122
651.389	0.0141961
651.467	0.0140865
651.545	0.0141427
651.623	0.0140443
651.701	0.0141169
651.780	0.0141359
651.858	0.0140558
651.936	0.0141122
652.014	0.0142943
652.092	0.0141212
652.170	0.0140709
652.248	0.0141908
652.326	0.0141344
652.405	0.0140926
652.483	0.0141165
652.561	0.0141172
652.639	0.0141823
652.717	0.0142046
652.795	0.0140823
652.873	0.0141055
652.951	0.0140580
653.030	0.0139832
653.108	0.0141017
653.186	0.0143540
653.264	0.0140936
653.342	0.0139259
653.420	0.0141265
653.498	0.0141389
653.576	0.0141312
653.655	0.0139787
653.733	0.0142199
653.811	0.0141916
653.889	0.0141931
653.967	0.0141661
654.045	0.0141882
654.123	0.0141333
654.201	0.0141506
654.280	0.0143328
654.358	0.0141154
654.436	0.0142384
654.514	0.0140152
654.592	0.0141268
654.670	0.0142441
654.748	0.0142517
654.826	0.0140750
654.905	0.0143242
654.983	0.0141911
655.061	0.0142331
655.139	0.0142404
655.217	0.0139809
655.295	0.0140382
655.373	0.0141801
655.451	0.0141554
655.530	0.0141662
655.608	0.0142361
655.686	0.0142290
655.764	0.0141594
655.842	0.0140485
655.920	0.0140348
655.998	0.0140620
656.076	0.0141809
656.155	0.0140883
656.233	0.0141911
656.311	0.0141832
656.389	0.0141891
656.467	0.0141930
656.545	0.0142233
656.623	0.0141209
656.701	0.0142017
656.780	0.0141702
656.858	0.0142217
656.936	0.0141174
657.014	0.0140484
657.092	0.0141629
657.170	0.0142599
657.248	0.0140961
657.326	0.0142698
657.405	0.0142271
657.483	0.0141257
657.561	0.0141819
657.639	0.0140816
657.717	0.0141375
657.795	0.0142569
657.873	0.0141851
657.951	0.0141107
658.030	0.0142102
658.108	0.0142774
658.186	0.0141566
658.264	0.0141510
658.342	0.0141367
658.420	0.0140746
658.498	0.0141541
658.576	0.0142500
658.655	0.0140733
658.733	0.0142655
658.811	0.0142602
658.889	0.0141465
658.967	0.0142019
659.045	0.0141398
659.123	0.0142609
659.201	0.0141092
659.280	0.0141535
659.358	0.0141513
659.436	0.0142192
659.514	0.0141711
659.592	0.0142654
659.670	0.0142492
659.748	0.0141904
659.826	0.0142470
659.905	0.0141628
659.983	0.0141157
660.061	0.0140566
660.139	0.0141930
660.217	0.0141786
660.295	0.0141918
660.373	0.0142262
660.451	0.0142578
660.530	0.0143005
660.608	0.0143285
660.686	0.0143135
660.764	0.0142236
660.842	0.0141968
660.920	0.0140474
660.998	0.0142251
661.076	0.0143083
661.155	0.0142583
661.233	0.0141568
661.311	0.0142645
661.389	0.0141280
661.467	0.0140298
661.545	0.0141774
661.623	0.0141578
661.701	0.0142672
661.780	0.0142865
661.858	0.0142777
661.936	0.0142484
662.014	0.0141853
662.092	0.0141789
662.170	0.0141590
662.248	0.0142558
662.326	0.0141714
662.405	0.0139926
662.483	0.0141551
662.561	0.0141859
662.639	0.0141679
662.717	0.0142587
662.795	0.0142040
662.873	0.0141701
662.951	0.0142833
663.030	0.0141016
663.108	0.0142001
663.186	0.0141851
663.264	0.0142280
663.342	0.0141123
663.420	0.0140634
663.498	0.0140820
663.576	0.0141621
663.655	0.0141250
663.733	0.0140482
663.811	0.0141267
663.889	0.0142810
663.967	0.0142203
664.045	0.0140231
664.123	0.0142272
664.201	0.0144147
664.280	0.0141557
664.358	0.0142683
664.436	0.0141531
664.514	0.0141578
664.592	0.0142281
664.670	0.0141206
664.748	0.0140124
664.826	0.0140859
664.905	0.0141872
664.983	0.0139968
665.061	0.0140944
665.139	0.0141151
665.217	0.0141450
665.295	0.0142410
665.373	0.0140919
665.451	0.0140912
665.530	0.0140697
665.608	0.0141158
665.686	0.0140387
665.764	0.0141399
665.842	0.0141920
665.920	0.0141793
665.998	0.0142188
666.076	0.0141730
666.155	0.0140569
666.233	0.0141263
666.311	0.0140263
666.389	0.0141196
666.467	0.0141515
666.545	0.0140039
666.623	0.0141294
666.701	0.0141277
666.780	0.0140182
666.858	0.0141778
666.936	0.0140253
667.014	0.0140761
667.092	0.0142784
667.170	0.0140866
667.248	0.0140527
667.326	0.0140620
667.405	0.0141303
667.483	0.0141995
667.561	0.0140363
667.639	0.0140420
667.717	0.0141251
667.795	0.0142017
667.873	0.0141434
667.951	0.0141518
668.030	0.0141198
668.108	0.0140952
668.186	0.0140434
668.264	0.0140504
668.342	0.0141012
668.420	0.0140695
668.498	0.0141847
668.576	0.0140866
668.655	0.0140717
668.733	0.0142001
668.811	0.0139558
668.889	0.0140299
668.967	0.0140383
669.045	0.0140752
669.123	0.0141962
669.201	0.0140398
669.280	0.0140958
669.358	0.0140688
669.436	0.0141521
669.514	0.0140766
669.592	0.0140548
669.670	0.0140612
669.748	0.0141316
669.826	0.0141579
669.905	0.0141061
669.983	0.0140811
670.061	0.0141070
670.139	0.0141818
670.217	0.0141084
670.295	0.0141210
670.373	0.0141295
670.451	0.0142313
670.530	0.0140980
670.608	0.0141867
670.686	0.0141745
670.764	0.0141418
670.842	0.0139353
670.920	0.0142014
670.998	0.0141137
671.076	0.0141702
671.155	0.0141525
671.233	0.0141511
671.311	0.0141567
671.389	0.0141571
671.467	0.0141068
671.545	0.0140842
671.623	0.0141037
671.701	0.0141173
671.780	0.0141924
671.858	0.0141515
671.936	0.0141663
672.014	0.0141473
672.092	0.0141523
672.170	0.0142388
672.248	0.0140965
672.326	0.0141188
672.405	0.0140437
672.483	0.0140919
672.561	0.0141967
672.639	0.0141152
672.717	0.0141882
672.795	0.0141010
672.873	0.0140874
672.951	0.0140099
673.030	0.0140631
673.108	0.0141615
673.186	0.0140659
673.264	0.0141255
673.342	0.0141328
673.420	0.0140011
673.498	0.0141501
673.576	0.0141299
673.655	0.0140877
673.733	0.0140587
673.811	0.0140832
673.889	0.0141025
673.967	0.0141947
674.045	0.0140974
674.123	0.0140339
674.201	0.0139486
674.280	0.0140993
674.358	0.0140343
674.436	0.0140841
674.514	0.0140816
674.592	0.0141159
674.670	0.0141966
674.748	0.0140878
674.826	0.0141027
674.905	0.0140391
674.983	0.0140956
675.061	0.0142463
675.139	0.0139989
675.217	0.0140828
675.295	0.0139729
675.373	0.0140806
675.451	0.0142406
675.530	0.0142410
675.608	0.0139388
675.686	0.0140569
675.764	0.0140678
675.842	0.0140113
675.920	0.0141171
675.998	0.0140708
676.076	0.0141232
676.155	0.0141261
676.233	0.0140197
676.311	0.0140615
676.389	0.0139210
676.467	0.0140855
676.545	0.0140473
676.623	0.0139185
676.701	0.0141913
676.780	0.0140936
676.858	0.0141044
676.936	0.0139150
677.014	0.0140046
677.092	0.0140023
677.170	0.0141065
677.248	0.0140680
677.326	0.0142142
677.405	0.0141302
677.483	0.0140798
677.561	0.0141467
677.639	0.0140507
677.717	0.0140700
677.795	0.0140536
677.873	0.0142072
677.951	0.0141167
678.030	0.0142207
678.108	0.0140120
678.186	0.0140881
678.264	0.0141316
678.342	0.0140749
678.420	0.0140401
678.498	0.0141269
678.576	0.0140386
678.655	0.0140937
678.733	0.0142027
678.811	0.0140383
678.889	0.0141145
678.967	0.0142126
679.045	0.0141055
679.123	0.0142338
679.201	0.0142207
679.280	0.0141339
679.358	0.0142277
679.436	0.0141930
679.514	0.0142750
679.592	0.0141708
679.670	0.0140820
679.748	0.0139482
679.826	0.0140747
679.905	0.0141584
679.983	0.0141848
680.061	0.0141413
680.139	0.0142119
680.217	0.0141124
680.295	0.0141171
680.373	0.0141906
680.451	0.0140754
680.530	0.0139630
680.608	0.0142457
680.686	0.0140700
680.764	0.0139583
680.842	0.0141219
680.920	0.0141888
680.998	0.0140673
681.076	0.0139957
681.155	0.0141375
681.233	0.0140942
681.311	0.0141084
681.389	0.0141876
681.467	0.0141494
681.545	0.0140826
681.623	0.0140604
681.701	0.0141247
681.780	0.0141148
681.858	0.0142471
681.936	0.0141804
682.014	0.0140836
682.092	0.0141583
682.170	0.0142509
682.248	0.0142065
682.326	0.0140874
682.405	0.0141603
682.483	0.0142073
682.561	0.0142301
682.639	0.0140609
682.717	0.0141771
682.795	0.0141875
682.873	0.0141354
682.951	0.0141737
683.030	0.0140974
683.108	0.0142797
683.186	0.0141392
683.264	0.0140343
683.342	0.0142769
683.420	0.0142335
683.498	0.0141084
683.576	0.0140303
683.655	0.0140810
683.733	0.0142148
683.811	0.0140099
683.889	0.0140881
683.967	0.0140081
684.045	0.0140376
684.123	0.0141512
684.201	0.0141044
684.280	0.0143027
684.358	0.0141969
684.436	0.0141717
684.514	0.0142559
684.592	0.0142097
684.670	0.0143481
684.748	0.0143382
684.826	0.0143459
684.905	0.0143312
684.983	0.0142052
685.061	0.0141777
685.139	0.0141274
685.217	0.0138985
685.295	0.0140093
685.373	0.0139436
685.451	0.0138138
685.530	0.0139852
685.608	0.0139398
685.686	0.0138914
685.764	0.0140565
685.842	0.0140144
685.920	0.0140677
685.998	0.0141010
686.076	0.0140708
686.155	0.0142274
686.233	0.0142948
686.311	0.0143028
686.389	0.0143800
686.467	0.0142970
686.545	0.0141476
686.623	0.0142757
686.701	0.0143472
686.780	0.0143089
686.858	0.0141992
686.936	0.0142908
687.014	0.0141870
687.092	0.0142450
687.170	0.0144294
687.248	0.0142879
687.326	0.0142410
687.405	0.0143357
687.483	0.0142854
687.561	0.0142026
687.639	0.0141885
687.717	0.0142890
687.795	0.0142069
687.873	0.0142776
687.951	0.0142505
688.030	0.0142441
688.108	0.0142447
688.186	0.0140305
688.264	0.0141721
688.342	0.0141763
688.420	0.0140279
688.498	0.0138530
688.576	0.0138348
688.655	0.0136835
688.733	0.0135777
688.811	0.0136541
688.889	0.0137773
688.967	0.0135571
689.045	0.0135007
689.123	0.0136053
689.201	0.0135568
689.280	0.0136462
689.358	0.0138613
689.436	0.0138472
689.514	0.0140030
689.592	0.0142670
689.670	0.0142933
689.748	0.0144907
689.826	0.0147359
689.905	0.0149874
689.983	0.0150663
690.061	0.0150326
690.139	0.0151807
690.217	0.0151591
690.295	0.0151363
690.373	0.0151192
690.451	0.0150067
690.530	0.0149216
690.608	0.0148264
690.686	0.0147759
690.764	0.0143591
690.842	0.0144940
690.920	0.0142542
690.998	0.0142815
691.076	0.0141859
691.155	0.0140022
691.233	0.0138601
691.311	0.0138383
691.389	0.0137394
691.467	0.0137679
691.545	0.0134925
691.623	0.0135899
691.701	0.0136153
691.780	0.0136370
691.858	0.0136018
691.936	0.0134228
692.014	0.0135640
692.092	0.0135406
692.170	0.0136202
692.248	0.0136716
692.326	0.0135678
692.405	0.0137909
692.483	0.0139137
692.561	0.0139417
692.639	0.0139685
692.717	0.0141974
692.795	0.0142412
692.873	0.0142227
692.951	0.0142920
693.030	0.0142332
693.108	0.0141196
693.186	0.0139066
693.264	0.0137984
693.342	0.0136638
693.420	0.0135272
693.498	0.0133562
693.576	0.0133071
693.655	0.0133315
693.733	0.0134357
693.811	0.0135070
693.889	0.0135707
693.967	0.0138234
694.045	0.0141483
694.123	0.0143431
694.201	0.0145147
694.280	0.0149380
694.358	0.0152927
694.436	0.0155740
694.514	0.0158358
694.592	0.0160777
694.670	0.0162476
694.748	0.0162108
694.826	0.0164053
694.905	0.0165860
694.983	0.0165662
695.061	0.0164798
695.139	0.0162995
695.217	0.0162149
695.295	0.0161755
695.373	0.0159235
695.451	0.0157735
695.530	0.0155311
695.608	0.0151477
695.686	0.0148437
695.764	0.0144221
695.842	0.0139890
695.920	0.0136220
695.998	0.0132551
696.076	0.0129055
696.155	0.0124165
696.233	0.0120166
696.311	0.0116634
696.389	0.0114299
696.467	0.0110342
696.545	0.0107851
696.623	0.0104507
696.701	0.0101965
696.780	0.0101977
696.858	0.0101138
696.936	0.0100044
697.014	0.0101007
697.092	0.0103848
697.170	0.0108370
697.248	0.0110944
697.326	0.0115289
697.405	0.0120554
697.483	0.0126304
697.561	0.0132347
697.639	0.0136732
697.717	0.0143369
697.795	0.0148109
697.873	0.0152219
697.951	0.0157314
698.030	0.0161472
698.108	0.0165324
698.186	0.0168637
698.264	0.0172731
698.342	0.0177039
698.420	0.0181898
698.498	0.0186348
698.576	0.0188939
698.655	0.0190687
698.733	0.0193786
698.811	0.0193583
698.889	0.0192565
698.967	0.0193124
699.045	0.0188694
699.123	0.0184537
699.201	0.0180166
699.280	0.0174180
699.358	0.0167228
699.436	0.0159798
699.514	0.0152875
699.592	0.0146044
699.670	0.0136253
699.748	0.0129872
699.826	0.0123913
699.905	0.0118475
699.983	0.0113786
700.061	0.0109158
700.139	0.0106747
700.217	0.0103497
700.295	0.0103525
700.373	0.0101760
700.451	0.0101895
700.530	0.0102952
700.608	0.0104221
700.686	0.0105476
700.764	0.0107343
700.842	0.0111216
700.920	0.0113437
700.998	0.0116047
701.076	0.0118354
701.155	0.0120390
701.233	0.0123244
701.311	0.0123640
701.389	0.0125099
701.467	0.0127253
701.545	0.0128288
701.623	0.0129601
701.701	0.0128677
701.780	0.0129548
701.858	0.0130190
701.936	0.0129669
702.014	0.0129277
702.092	0.0128226
702.170	0.0129816
702.248	0.0131133
702.326	0.0130926
702.405	0.0132541
702.483	0.0139014
702.561	0.0141224
702.639	0.0145135
702.717	0.0150236
702.795	0.0154850
702.873	0.0161602
702.951	0.0166058
703.030	0.0172239
703.108	0.0177132
703.186	0.0180815
703.264	0.0183199
703.342	0.0185291
703.420	0.0185010
703.498	0.0185809
703.576	0.0185232
703.655	0.0185568
703.733	0.0184141
703.811	0.0182503
703.889	0.0181667
703.967	0.0180476
704.045	0.0177767
704.123	0.0174303
704.201	0.0171940
704.280	0.0170311
704.358	0.0166173
704.436	0.0162755
704.514	0.0157364
704.592	0.0151242
704.670	0.0144075
704.748	0.0137968
704.826	0.0130956
704.905	0.0123635
704.983	0.0115523
705.061	0.0110675
705.139	0.0103635
705.217	0.00988029
705.295	0.00955032
705.373	0.00932869
705.451	0.00905128
705.530	0.00913773
705.608	0.00925476
705.686	0.00938454
705.764	0.00963463
705.842	0.00997917
705.920	0.0105679
705.998	0.0110313
706.076	0.0114091
706.155	0.0117707
706.233	0.0121124
706.311	0.0124884
706.389	0.0128757
706.467	0.0131475
706.545	0.0131645
706.623	0.0133736
706.701	0.0134869
706.780	0.0134953
706.858	0.0134635
706.936	0.0133337
707.014	0.0132280
707.092	0.0131818
707.170	0.0130645
707.248	0.0127984
707.326	0.0127103
707.405	0.0127707
707.483	0.0127611
707.561	0.0129694
707.639	0.0130123
707.717	0.0133321
707.795	0.0136410
707.873	0.0140942
707.951	0.0146406
708.030	0.0150706
708.108	0.0157149
708.186	0.0163959
708.264	0.0171025
708.342	0.0179357
708.420	0.0184743
708.498	0.0190514
708.576	0.0196120
708.655	0.0197823
708.733	0.0200580
708.811	0.0201261
708.889	0.0200687
708.967	0.0199001
709.045	0.0198174
709.123	0.0194590
709.201	0.0189845
709.280	0.0183801
709.358	0.0179365
709.436	0.0176775
709.514	0.0172118
709.592	0.0167723
709.670	0.0164223
709.748	0.0160620
709.826	0.0156108
709.905	0.0152403
709.983	0.0146655
710.061	0.0141341
710.139	0.0133967
710.217	0.0128050
710.295	0.0121341
710.373	0.0112485
710.451	0.0105235
710.530	0.0100584
710.608	0.00943542
710.686	0.00875946
710.764	0.00840874
710.842	0.00806000
710.920	0.00790138
710.998	0.00766502
711.076	0.00776039
711.155	0.00796646
711.233	0.00802399
711.311	0.00842819
711.389	0.00879433
711.467	0.00923988
711.545	0.00980789
711.623	0.0104931
711.701	0.0110271
711.780	0.0116972
711.858	0.0123234
711.936	0.0132128
712.014	0.0141132
712.092	0.0145432
712.170	0.0150626
712.248	0.0156494
712.326	0.0160722
712.405	0.0163193
712.483	0.0162756
712.561	0.0164150
712.639	0.0164446
712.717	0.0161781
712.795	0.0158826
712.873	0.0155791
712.951	0.0152515
713.030	0.0150015
713.108	0.0146794
713.186	0.0144950
713.264	0.0142939
713.342	0.0144346
713.420	0.0143537
713.498	0.0145558
713.576	0.0147215
713.655	0.0152071
713.733	0.0156941
713.811	0.0162231
713.889	0.0167412
713.967	0.0173251
714.045	0.0178685
714.123	0.0182420
714.201	0.0186871
714.280	0.0188909
714.358	0.0193273
714.436	0.0192059
714.514	0.0192651
714.592	0.0191635
714.670	0.0186522
714.748	0.0183630
714.826	0.0178824
714.905	0.0172682
714.983	0.0167541
715.061	0.0161768
715.139	0.0156765
715.217	0.0150715
715.295	0.0145851
715.373	0.0141553
715.451	0.0137505
715.530	0.0134595
715.608	0.0131277
715.686	0.0127911
715.764	0.0126271
715.842	0.0123343
715.920	0.0121812
715.998	0.0119577
716.076	0.0116972
716.155	0.0113358
716.233	0.0110154
716.311	0.0106773
716.389	0.0103231
716.467	0.0100458
716.545	0.00973511
716.623	0.00950752
716.701	0.00919189
716.780	0.00916649
716.858	0.00928169
716.936	0.00934265
717.014	0.00952164
717.092	0.00981033
717.170	0.0101487
717.248	0.0108638
717.326	0.0114099
717.405	0.0119768
717.483	0.0124355
717.561	0.0130919
717.639	0.0137191
717.717	0.0141651
717.795	0.0147240
717.873	0.0153222
717.951	0.0156306
718.030	0.0159805
718.108	0.0162770
718.186	0.0164753
718.264	0.0168367
718.342	0.0165982
718.420	0.0163773
718.498	0.0162971
718.576	0.0160920
718.655	0.0157915
718.733	0.0156274
718.811	0.0150768
718.889	0.0147343
718.967	0.0143726
719.045	0.0141105
719.123	0.0139648
719.201	0.0137795
719.280	0.0137701
719.358	0.0140454
719.436	0.0143999
719.514	0.0144711
719.592	0.0150043
719.670	0.0154016
719.748	0.0159869
719.826	0.0163747
719.905	0.0167760
719.983	0.0171316
720.061	0.0173565
720.139	0.0177362
720.217	0.0178510
720.295	0.0180473
720.373	0.0179030
720.451	0.0177860
720.530	0.0178638
720.608	0.0175865
720.686	0.0172677
720.764	0.0170178
720.842	0.0166329
720.920	0.0163641
720.998	0.0158392
721.076	0.0153921
721.155	0.0150877
721.233	0.0146054
721.311	0.0141913
721.389	0.0137922
721.467	0.0134457
721.545	0.0131043
721.623	0.0129304
721.701	0.0127129
721.780	0.0123881
721.858	0.0124546
721.936	0.0121874
722.014	0.0119939
722.092	0.0117825
722.170	0.0114280
722.248	0.0114215
722.326	0.0110126
722.405	0.0107607
722.483	0.0103777
722.561	0.0102037
722.639	0.0100727
722.717	0.00991356
722.795	0.00980591
722.873	0.00985634
722.951	0.0100617
723.030	0.0104424
723.108	0.0107360
723.186	0.0110694
723.264	0.0117015
723.342	0.0121129
723.420	0.0126593
723.498	0.0132249
723.576	0.0137866
723.655	0.0142716
723.733	0.0148924
723.811	0.0153181
723.889	0.0157541
723.967	0.0162299
724.045	0.0163595
724.123	0.0165704
724.201	0.0168056
724.280	0.0168156
724.358	0.0168726
724.436	0.0167124
724.514	0.0164278
724.592	0.0161105
724.670	0.0158595
724.748	0.0154789
724.826	0.0148882
724.905	0.0143761
724.983	0.0138518
725.061	0.0137591
725.139	0.0132010
725.217	0.0130068
725.295	0.0130616
725.373	0.0131029
725.451	0.0132089
725.530	0.0134581
