05/20/2022	16:15:16	Ver.	4.1	UNKNOWN
Optical Delay	639.982744	Delta X		0.078125	Sweeps	1	Scan Rate	0/0
Coordinates	Axis 1	NaN	Axis 2	NaN	Axis 3	NaN	Axis 4	NaN	Axis 5	NaN	Axis 6	0.000000
TX Power	0.000000	RX Power	0.000000

639.983	0.0146758
640.061	0.0146535
640.139	0.0146848
640.217	0.0145888
640.295	0.0148042
640.373	0.0145949
640.451	0.0145660
640.530	0.0147162
640.608	0.0147031
640.686	0.0146938
640.764	0.0147346
640.842	0.0147234
640.920	0.0146690
640.998	0.0146835
641.076	0.0147323
641.155	0.0146020
641.233	0.0145589
641.311	0.0146722
641.389	0.0147149
641.467	0.0146662
641.545	0.0146419
641.623	0.0146206
641.701	0.0146341
641.780	0.0147166
641.858	0.0147405
641.936	0.0147359
642.014	0.0147168
642.092	0.0147355
642.170	0.0145301
642.248	0.0146294
642.326	0.0147973
642.405	0.0147250
642.483	0.0145997
642.561	0.0145623
642.639	0.0147485
642.717	0.0146416
642.795	0.0146685
642.873	0.0146144
642.951	0.0145171
643.030	0.0145980
643.108	0.0146613
643.186	0.0146593
643.264	0.0146169
643.342	0.0145775
643.420	0.0144954
643.498	0.0144975
643.576	0.0145876
643.655	0.0147005
643.733	0.0146598
643.811	0.0146701
643.889	0.0146718
643.967	0.0146074
644.045	0.0147469
644.123	0.0146716
644.201	0.0146510
644.280	0.0147067
644.358	0.0147741
644.436	0.0145317
644.514	0.0146719
644.592	0.0146196
644.670	0.0146371
644.748	0.0146104
644.826	0.0147147
644.905	0.0146290
644.983	0.0146456
645.061	0.0146066
645.139	0.0145198
645.217	0.0146206
645.295	0.0147507
645.373	0.0148383
645.451	0.0145593
645.530	0.0146892
645.608	0.0145670
645.686	0.0146143
645.764	0.0146685
645.842	0.0146375
645.920	0.0146472
645.998	0.0145826
646.076	0.0146535
646.155	0.0147099
646.233	0.0146665
646.311	0.0147422
646.389	0.0147221
646.467	0.0146294
646.545	0.0145657
646.623	0.0145049
646.701	0.0146543
646.780	0.0146996
646.858	0.0146929
646.936	0.0145393
647.014	0.0145282
647.092	0.0145465
647.170	0.0146392
647.248	0.0146311
647.326	0.0146258
647.405	0.0147588
647.483	0.0147215
647.561	0.0146808
647.639	0.0146618
647.717	0.0147775
647.795	0.0145506
647.873	0.0147034
647.951	0.0147250
648.030	0.0146419
648.108	0.0146992
648.186	0.0147363
648.264	0.0146114
648.342	0.0146436
648.420	0.0145089
648.498	0.0146233
648.576	0.0146882
648.655	0.0145921
648.733	0.0147342
648.811	0.0148155
648.889	0.0146288
648.967	0.0146223
649.045	0.0146132
649.123	0.0145441
649.201	0.0145597
649.280	0.0147942
649.358	0.0146229
649.436	0.0147869
649.514	0.0147830
649.592	0.0147044
649.670	0.0145686
649.748	0.0146771
649.826	0.0147061
649.905	0.0146271
649.983	0.0146851
650.061	0.0146967
650.139	0.0146390
650.217	0.0147924
650.295	0.0147798
650.373	0.0146949
650.451	0.0146550
650.530	0.0146770
650.608	0.0145705
650.686	0.0146707
650.764	0.0148350
650.842	0.0146989
650.920	0.0148796
650.998	0.0148000
651.076	0.0145867
651.155	0.0147730
651.233	0.0147213
651.311	0.0147090
651.389	0.0145951
651.467	0.0146149
651.545	0.0147998
651.623	0.0145711
651.701	0.0147213
651.780	0.0147831
651.858	0.0147757
651.936	0.0146720
652.014	0.0147189
652.092	0.0147991
652.170	0.0146922
652.248	0.0147006
652.326	0.0147215
652.405	0.0148148
652.483	0.0147690
652.561	0.0146748
652.639	0.0146882
652.717	0.0147610
652.795	0.0146708
652.873	0.0147220
652.951	0.0146676
653.030	0.0145672
653.108	0.0147845
653.186	0.0147745
653.264	0.0147838
653.342	0.0147070
653.420	0.0147731
653.498	0.0146732
653.576	0.0147919
653.655	0.0147017
653.733	0.0147858
653.811	0.0147194
653.889	0.0148360
653.967	0.0146331
654.045	0.0147543
654.123	0.0147403
654.201	0.0146798
654.280	0.0146616
654.358	0.0147191
654.436	0.0146731
654.514	0.0146898
654.592	0.0147202
654.670	0.0146593
654.748	0.0146095
654.826	0.0147475
654.905	0.0147200
654.983	0.0144982
655.061	0.0145744
655.139	0.0148175
655.217	0.0146204
655.295	0.0145904
655.373	0.0148014
655.451	0.0145721
655.530	0.0147128
655.608	0.0147533
655.686	0.0146758
655.764	0.0146551
655.842	0.0146891
655.920	0.0147025
655.998	0.0146076
656.076	0.0146738
656.155	0.0146906
656.233	0.0146571
656.311	0.0145692
656.389	0.0146381
656.467	0.0146893
656.545	0.0146522
656.623	0.0146408
656.701	0.0146451
656.780	0.0147445
656.858	0.0147667
656.936	0.0147459
657.014	0.0147258
657.092	0.0146768
657.170	0.0146626
657.248	0.0147839
657.326	0.0146941
657.405	0.0147298
657.483	0.0147433
657.561	0.0146836
657.639	0.0147260
657.717	0.0148029
657.795	0.0147860
657.873	0.0146748
657.951	0.0146170
658.030	0.0147254
658.108	0.0147920
658.186	0.0147810
658.264	0.0146170
658.342	0.0146832
658.420	0.0148675
658.498	0.0147364
658.576	0.0145943
658.655	0.0146471
658.733	0.0147741
658.811	0.0147833
658.889	0.0146904
658.967	0.0146374
659.045	0.0145802
659.123	0.0147250
659.201	0.0145810
659.280	0.0147263
659.358	0.0146921
659.436	0.0147765
659.514	0.0145696
659.592	0.0146854
659.670	0.0147274
659.748	0.0145564
659.826	0.0146692
659.905	0.0147050
659.983	0.0147323
660.061	0.0147850
660.139	0.0146208
660.217	0.0146700
660.295	0.0147729
660.373	0.0147475
660.451	0.0148372
660.530	0.0146074
660.608	0.0147861
660.686	0.0148016
660.764	0.0147029
660.842	0.0145587
660.920	0.0146255
660.998	0.0147237
661.076	0.0147408
661.155	0.0146687
661.233	0.0146230
661.311	0.0147559
661.389	0.0147450
661.467	0.0147411
661.545	0.0147488
661.623	0.0145803
661.701	0.0145875
661.780	0.0146526
661.858	0.0147321
661.936	0.0147704
662.014	0.0145748
662.092	0.0146835
662.170	0.0145485
662.248	0.0146375
662.326	0.0146730
662.405	0.0145819
662.483	0.0147111
662.561	0.0146425
662.639	0.0146242
662.717	0.0147331
662.795	0.0146768
662.873	0.0147324
662.951	0.0147078
663.030	0.0146440
663.108	0.0145404
663.186	0.0144932
663.264	0.0148031
663.342	0.0146526
663.420	0.0147215
663.498	0.0148276
663.576	0.0146040
663.655	0.0146629
663.733	0.0146053
663.811	0.0148389
663.889	0.0145503
663.967	0.0146521
664.045	0.0147885
664.123	0.0147697
664.201	0.0145927
664.280	0.0146774
664.358	0.0145119
664.436	0.0146888
664.514	0.0146935
664.592	0.0146462
664.670	0.0147205
664.748	0.0146529
664.826	0.0145711
664.905	0.0145662
664.983	0.0145996
665.061	0.0146895
665.139	0.0147735
665.217	0.0145762
665.295	0.0147285
665.373	0.0145785
665.451	0.0144730
665.530	0.0146558
665.608	0.0145857
665.686	0.0147022
665.764	0.0145885
665.842	0.0146740
665.920	0.0147674
665.998	0.0146630
666.076	0.0146306
666.155	0.0144954
666.233	0.0145411
666.311	0.0146599
666.389	0.0147018
666.467	0.0146928
666.545	0.0148219
666.623	0.0146983
666.701	0.0147131
666.780	0.0146448
666.858	0.0146111
666.936	0.0146816
667.014	0.0146580
667.092	0.0146302
667.170	0.0146258
667.248	0.0147765
667.326	0.0146083
667.405	0.0147423
667.483	0.0147327
667.561	0.0146115
667.639	0.0146391
667.717	0.0147792
667.795	0.0147717
667.873	0.0145356
667.951	0.0147018
668.030	0.0147070
668.108	0.0146379
668.186	0.0146384
668.264	0.0146662
668.342	0.0146959
668.420	0.0146477
668.498	0.0147288
668.576	0.0147615
668.655	0.0148057
668.733	0.0146907
668.811	0.0146643
668.889	0.0146143
668.967	0.0147267
669.045	0.0146037
669.123	0.0146450
669.201	0.0146437
669.280	0.0145163
669.358	0.0145976
669.436	0.0147063
669.514	0.0145831
669.592	0.0146153
669.670	0.0145047
669.748	0.0146828
669.826	0.0146111
669.905	0.0146006
669.983	0.0146537
670.061	0.0146298
670.139	0.0147289
670.217	0.0146210
670.295	0.0145239
670.373	0.0146564
670.451	0.0147717
670.530	0.0146405
670.608	0.0145738
670.686	0.0147098
670.764	0.0146241
670.842	0.0146346
670.920	0.0146404
670.998	0.0147809
671.076	0.0147245
671.155	0.0146284
671.233	0.0147121
671.311	0.0147677
671.389	0.0147182
671.467	0.0146986
671.545	0.0147010
671.623	0.0146514
671.701	0.0147269
671.780	0.0145969
671.858	0.0146999
671.936	0.0145867
672.014	0.0144814
672.092	0.0146030
672.170	0.0146088
672.248	0.0147826
672.326	0.0148040
672.405	0.0146944
672.483	0.0146627
672.561	0.0146140
672.639	0.0146896
672.717	0.0147997
672.795	0.0146616
672.873	0.0146184
672.951	0.0146856
673.030	0.0146710
673.108	0.0147433
673.186	0.0146650
673.264	0.0146593
673.342	0.0145682
673.420	0.0146339
673.498	0.0147595
673.576	0.0146208
673.655	0.0146199
673.733	0.0146928
673.811	0.0146957
673.889	0.0146677
673.967	0.0147585
674.045	0.0146834
674.123	0.0146930
674.201	0.0145266
674.280	0.0146344
674.358	0.0147247
674.436	0.0145779
674.514	0.0146077
674.592	0.0147794
674.670	0.0146233
674.748	0.0146922
674.826	0.0144414
674.905	0.0145940
674.983	0.0147907
675.061	0.0146474
675.139	0.0145924
675.217	0.0146651
675.295	0.0146719
675.373	0.0146246
675.451	0.0146070
675.530	0.0145490
675.608	0.0145455
675.686	0.0146089
675.764	0.0146197
675.842	0.0145166
675.920	0.0143848
675.998	0.0146114
676.076	0.0146490
676.155	0.0146415
676.233	0.0146057
676.311	0.0146114
676.389	0.0145242
676.467	0.0145175
676.545	0.0145162
676.623	0.0144856
676.701	0.0145808
676.780	0.0145762
676.858	0.0147043
676.936	0.0146126
677.014	0.0145646
677.092	0.0146154
677.170	0.0145313
677.248	0.0145634
677.326	0.0146906
677.405	0.0145968
677.483	0.0144732
677.561	0.0143586
677.639	0.0144706
677.717	0.0147416
677.795	0.0145795
677.873	0.0144625
677.951	0.0147069
678.030	0.0146407
678.108	0.0146967
678.186	0.0146520
678.264	0.0145947
678.342	0.0145039
678.420	0.0147209
678.498	0.0147295
678.576	0.0145615
678.655	0.0146311
678.733	0.0146021
678.811	0.0145741
678.889	0.0146245
678.967	0.0145695
679.045	0.0146537
679.123	0.0145606
679.201	0.0145495
679.280	0.0146584
679.358	0.0147338
679.436	0.0147601
679.514	0.0145567
679.592	0.0145562
679.670	0.0147096
679.748	0.0147049
679.826	0.0146776
679.905	0.0146924
679.983	0.0146694
680.061	0.0147655
680.139	0.0146904
680.217	0.0146575
680.295	0.0146602
680.373	0.0146400
680.451	0.0146948
680.530	0.0146305
680.608	0.0147523
680.686	0.0147941
680.764	0.0147291
680.842	0.0146799
680.920	0.0147009
680.998	0.0147818
681.076	0.0147302
681.155	0.0147468
681.233	0.0147012
681.311	0.0147462
681.389	0.0148896
681.467	0.0146824
681.545	0.0145754
681.623	0.0148162
681.701	0.0147186
681.780	0.0146465
681.858	0.0146850
681.936	0.0147688
682.014	0.0146544
682.092	0.0146407
682.170	0.0146529
682.248	0.0146973
682.326	0.0146961
682.405	0.0147052
682.483	0.0146322
682.561	0.0146404
682.639	0.0145803
682.717	0.0145293
682.795	0.0148157
682.873	0.0148268
682.951	0.0147352
683.030	0.0147047
683.108	0.0148367
683.186	0.0149432
683.264	0.0150856
683.342	0.0147593
683.420	0.0148175
683.498	0.0148736
683.576	0.0149426
683.655	0.0148699
683.733	0.0147555
683.811	0.0147138
683.889	0.0146675
683.967	0.0146017
684.045	0.0146109
684.123	0.0146503
684.201	0.0146513
684.280	0.0147095
684.358	0.0147960
684.436	0.0146274
684.514	0.0146302
684.592	0.0146072
684.670	0.0146537
684.748	0.0146341
684.826	0.0146183
684.905	0.0145926
684.983	0.0146983
685.061	0.0147150
685.139	0.0147276
685.217	0.0146770
685.295	0.0147483
685.373	0.0148556
685.451	0.0147955
685.530	0.0149084
685.608	0.0148430
685.686	0.0148279
685.764	0.0149142
685.842	0.0150774
685.920	0.0149332
685.998	0.0150915
686.076	0.0150059
686.155	0.0149739
686.233	0.0148589
686.311	0.0148631
686.389	0.0148797
686.467	0.0149374
686.545	0.0146674
686.623	0.0146639
686.701	0.0145675
686.780	0.0146185
686.858	0.0144911
686.936	0.0145872
687.014	0.0145229
687.092	0.0145644
687.170	0.0146194
687.248	0.0147035
687.326	0.0146614
687.405	0.0147821
687.483	0.0146089
687.561	0.0146755
687.639	0.0147567
687.717	0.0146400
687.795	0.0144956
687.873	0.0147513
687.951	0.0144910
688.030	0.0144744
688.108	0.0144851
688.186	0.0145381
688.264	0.0147589
688.342	0.0146971
688.420	0.0146087
688.498	0.0146967
688.576	0.0146333
688.655	0.0147083
688.733	0.0147449
688.811	0.0147250
688.889	0.0145466
688.967	0.0145464
689.045	0.0145502
689.123	0.0147588
689.201	0.0146379
689.280	0.0145857
689.358	0.0146114
689.436	0.0145902
689.514	0.0146148
689.592	0.0147465
689.670	0.0150190
689.748	0.0151022
689.826	0.0150251
689.905	0.0151746
689.983	0.0151230
690.061	0.0150667
690.139	0.0149774
690.217	0.0151811
690.295	0.0150890
690.373	0.0149236
690.451	0.0150114
690.530	0.0149152
690.608	0.0149259
690.686	0.0148992
690.764	0.0148191
690.842	0.0148116
690.920	0.0147260
690.998	0.0147229
691.076	0.0146526
691.155	0.0144547
691.233	0.0143227
691.311	0.0143299
691.389	0.0140956
691.467	0.0139928
691.545	0.0138557
691.623	0.0137194
691.701	0.0136674
691.780	0.0136791
691.858	0.0134952
691.936	0.0137218
692.014	0.0137464
692.092	0.0138518
692.170	0.0140657
692.248	0.0141227
692.326	0.0143183
692.405	0.0143290
692.483	0.0145346
692.561	0.0146765
692.639	0.0148466
692.717	0.0149097
692.795	0.0150495
692.873	0.0150667
692.951	0.0150117
693.030	0.0150417
693.108	0.0149755
693.186	0.0151063
693.264	0.0151233
693.342	0.0151472
693.420	0.0153233
693.498	0.0153793
693.576	0.0154678
693.655	0.0152487
693.733	0.0154082
693.811	0.0154440
693.889	0.0152482
693.967	0.0152886
694.045	0.0150026
694.123	0.0148566
694.201	0.0147675
694.280	0.0145381
694.358	0.0145645
694.436	0.0144507
694.514	0.0145945
694.592	0.0144664
694.670	0.0144717
694.748	0.0146214
694.826	0.0147095
694.905	0.0149667
694.983	0.0150442
695.061	0.0149883
695.139	0.0153584
695.217	0.0152374
695.295	0.0153022
695.373	0.0153799
695.451	0.0153349
695.530	0.0152531
695.608	0.0153033
695.686	0.0151888
695.764	0.0148537
695.842	0.0146344
695.920	0.0145538
695.998	0.0143844
696.076	0.0141678
696.155	0.0138079
696.233	0.0136436
696.311	0.0134586
696.389	0.0132085
696.467	0.0130405
696.545	0.0127912
696.623	0.0127451
696.701	0.0124500
696.780	0.0123873
696.858	0.0123130
696.936	0.0122120
697.014	0.0122128
697.092	0.0121899
697.170	0.0122401
697.248	0.0124092
697.326	0.0129371
697.405	0.0131045
697.483	0.0134549
697.561	0.0136363
697.639	0.0139704
697.717	0.0144564
697.795	0.0147395
697.873	0.0151547
697.951	0.0156564
698.030	0.0159541
698.108	0.0165047
698.186	0.0169073
698.264	0.0175719
698.342	0.0180080
698.420	0.0183608
698.498	0.0185323
698.576	0.0188590
698.655	0.0190948
698.733	0.0190425
698.811	0.0189337
698.889	0.0188345
698.967	0.0186280
699.045	0.0182458
699.123	0.0179007
699.201	0.0174919
699.280	0.0170296
699.358	0.0162911
699.436	0.0158174
699.514	0.0151871
699.592	0.0144299
699.670	0.0140840
699.748	0.0135499
699.826	0.0132559
699.905	0.0127514
699.983	0.0124100
700.061	0.0119646
700.139	0.0119273
700.217	0.0116677
700.295	0.0113803
700.373	0.0111325
700.451	0.0110681
700.530	0.0109806
700.608	0.0108413
700.686	0.0106914
700.764	0.0108041
700.842	0.0107494
700.920	0.0108702
700.998	0.0109171
701.076	0.0110897
701.155	0.0113670
701.233	0.0114565
701.311	0.0118916
701.389	0.0122861
701.467	0.0125212
701.545	0.0127969
701.623	0.0133055
701.701	0.0137357
701.780	0.0139880
701.858	0.0142298
701.936	0.0145710
702.014	0.0150733
702.092	0.0154770
702.170	0.0158930
702.248	0.0162986
702.326	0.0168703
702.405	0.0173579
702.483	0.0178088
702.561	0.0181942
702.639	0.0184535
702.717	0.0187134
702.795	0.0187328
702.873	0.0186762
702.951	0.0186696
703.030	0.0185287
703.108	0.0181937
703.186	0.0180273
703.264	0.0176685
703.342	0.0172971
703.420	0.0171789
703.498	0.0167873
703.576	0.0166018
703.655	0.0164438
703.733	0.0164297
703.811	0.0161652
703.889	0.0162522
703.967	0.0161465
704.045	0.0160887
704.123	0.0160904
704.201	0.0158078
704.280	0.0157709
704.358	0.0155383
704.436	0.0151505
704.514	0.0146890
704.592	0.0143076
704.670	0.0136050
704.748	0.0131234
704.826	0.0125617
704.905	0.0119007
704.983	0.0114583
705.061	0.0111191
705.139	0.0107944
705.217	0.0105346
705.295	0.0105529
705.373	0.0106102
705.451	0.0107193
705.530	0.0110619
705.608	0.0111333
705.686	0.0117792
705.764	0.0121621
705.842	0.0124474
705.920	0.0126767
705.998	0.0133603
706.076	0.0136433
706.155	0.0139783
706.233	0.0141830
706.311	0.0142554
706.389	0.0142855
706.467	0.0143225
706.545	0.0143687
706.623	0.0145789
706.701	0.0146085
706.780	0.0144690
706.858	0.0142803
706.936	0.0143117
707.014	0.0142025
707.092	0.0141305
707.170	0.0140244
707.248	0.0139684
707.326	0.0139142
707.405	0.0139692
707.483	0.0141219
707.561	0.0141560
707.639	0.0143110
707.717	0.0147320
707.795	0.0149679
707.873	0.0153821
707.951	0.0159076
708.030	0.0165062
708.108	0.0170213
708.186	0.0176199
708.264	0.0180922
708.342	0.0185768
708.420	0.0190752
708.498	0.0193901
708.576	0.0194048
708.655	0.0193902
708.733	0.0192779
708.811	0.0191045
708.889	0.0187206
708.967	0.0184491
709.045	0.0179556
709.123	0.0176024
709.201	0.0171074
709.280	0.0167178
709.358	0.0164846
709.436	0.0161944
709.514	0.0159570
709.592	0.0159890
709.670	0.0157410
709.748	0.0154908
709.826	0.0154454
709.905	0.0152036
709.983	0.0150115
710.061	0.0145468
710.139	0.0139787
710.217	0.0134979
710.295	0.0128474
710.373	0.0121514
710.451	0.0116103
710.530	0.0111061
710.608	0.0107245
710.686	0.0103754
710.764	0.0100676
710.842	0.00982826
710.920	0.00972130
710.998	0.00958023
711.076	0.00987396
711.155	0.0100411
711.233	0.0102027
711.311	0.0106625
711.389	0.0110327
711.467	0.0113866
711.545	0.0118599
711.623	0.0123547
711.701	0.0126666
711.780	0.0132832
711.858	0.0137716
711.936	0.0142397
712.014	0.0146457
712.092	0.0150669
712.170	0.0155161
712.248	0.0156758
712.326	0.0159570
712.405	0.0160667
712.483	0.0160915
712.561	0.0161140
712.639	0.0157919
712.717	0.0155483
712.795	0.0152685
712.873	0.0150257
712.951	0.0145219
713.030	0.0144493
713.108	0.0143179
713.186	0.0139316
713.264	0.0139225
713.342	0.0140700
713.420	0.0143853
713.498	0.0146803
713.576	0.0152676
713.655	0.0157951
713.733	0.0165395
713.811	0.0172802
713.889	0.0176583
713.967	0.0184249
714.045	0.0189793
714.123	0.0193198
714.201	0.0195961
714.280	0.0198483
714.358	0.0199776
714.436	0.0198738
714.514	0.0197386
714.592	0.0194046
714.670	0.0189945
714.748	0.0185958
714.826	0.0179095
714.905	0.0175365
714.983	0.0168405
715.061	0.0163959
715.139	0.0157988
715.217	0.0151237
715.295	0.0147038
715.373	0.0142815
715.451	0.0139339
715.530	0.0135322
715.608	0.0130866
715.686	0.0128722
715.764	0.0126151
715.842	0.0125583
715.920	0.0121270
715.998	0.0120159
716.076	0.0118488
716.155	0.0115450
716.233	0.0113218
716.311	0.0110697
716.389	0.0108662
716.467	0.0106767
716.545	0.0103590
716.623	0.0103419
716.701	0.0104420
716.780	0.0102848
716.858	0.0103799
716.936	0.0104270
717.014	0.0107390
717.092	0.0108887
717.170	0.0111308
717.248	0.0114915
717.326	0.0119140
717.405	0.0123744
717.483	0.0129270
717.561	0.0135200
717.639	0.0139479
717.717	0.0146196
717.795	0.0154173
717.873	0.0157220
717.951	0.0162444
718.030	0.0168642
718.108	0.0171979
718.186	0.0173214
718.264	0.0175644
718.342	0.0175449
718.420	0.0175314
718.498	0.0170423
718.576	0.0166712
718.655	0.0162543
718.733	0.0158049
718.811	0.0154462
718.889	0.0147565
718.967	0.0140882
719.045	0.0137505
719.123	0.0135864
719.201	0.0135166
719.280	0.0134796
719.358	0.0136122
719.436	0.0137587
719.514	0.0141249
719.592	0.0146145
719.670	0.0149097
719.748	0.0155057
719.826	0.0159350
719.905	0.0164812
719.983	0.0170605
720.061	0.0173171
720.139	0.0176900
720.217	0.0180831
720.295	0.0183278
720.373	0.0185728
720.451	0.0187794
720.530	0.0187968
720.608	0.0188089
720.686	0.0187302
720.764	0.0186269
720.842	0.0182001
720.920	0.0178804
720.998	0.0173704
721.076	0.0168696
721.155	0.0162475
721.233	0.0157359
721.311	0.0151096
721.389	0.0146448
721.467	0.0142931
721.545	0.0136573
721.623	0.0133008
721.701	0.0131580
721.780	0.0128551
721.858	0.0127578
721.936	0.0126351
722.014	0.0126616
722.092	0.0124851
722.170	0.0124625
722.248	0.0121254
722.326	0.0119166
722.405	0.0117726
722.483	0.0113327
722.561	0.0109740
722.639	0.0106022
722.717	0.0104053
722.795	0.0101704
722.873	0.0100853
722.951	0.00996078
723.030	0.0101836
723.108	0.0103675
723.186	0.0108212
723.264	0.0112518
723.342	0.0117964
723.420	0.0123188
723.498	0.0130529
723.576	0.0135688
723.655	0.0141443
723.733	0.0145693
723.811	0.0149198
723.889	0.0154366
723.967	0.0158074
724.045	0.0161001
724.123	0.0162159
724.201	0.0165163
724.280	0.0165755
724.358	0.0169077
724.436	0.0168855
724.514	0.0170145
724.592	0.0169556
724.670	0.0169633
724.748	0.0168098
724.826	0.0167886
724.905	0.0165816
724.983	0.0162976
725.061	0.0160702
725.139	0.0156540
725.217	0.0151850
725.295	0.0150273
725.373	0.0147543
725.451	0.0145235
725.530	0.0144157
725.608	0.0141611
725.686	0.0142459
