05/20/2022	16:15:41	Ver.	4.1	UNKNOWN
Optical Delay	639.982744	Delta X		0.078125	Sweeps	1	Scan Rate	0/0
Coordinates	Axis 1	NaN	Axis 2	NaN	Axis 3	NaN	Axis 4	NaN	Axis 5	NaN	Axis 6	0.000000
TX Power	0.000000	RX Power	0.000000

639.983	0.0142709
640.061	0.0141978
640.139	0.0142988
640.217	0.0143232
640.295	0.0143462
640.373	0.0142221
640.451	0.0142565
640.530	0.0141575
640.608	0.0143006
640.686	0.0142966
640.764	0.0142230
640.842	0.0143279
640.920	0.0144365
640.998	0.0142199
641.076	0.0143112
641.155	0.0142722
641.233	0.0142670
641.311	0.0142816
641.389	0.0144402
641.467	0.0143678
641.545	0.0142416
641.623	0.0142244
641.701	0.0142144
641.780	0.0142332
641.858	0.0143021
641.936	0.0141840
642.014	0.0142403
642.092	0.0142936
642.170	0.0142692
642.248	0.0142772
642.326	0.0143910
642.405	0.0143291
642.483	0.0143297
642.561	0.0142803
642.639	0.0142376
642.717	0.0141259
642.795	0.0141334
642.873	0.0143813
642.951	0.0143655
643.030	0.0142632
643.108	0.0141798
643.186	0.0142699
643.264	0.0142541
643.342	0.0141859
643.420	0.0143818
643.498	0.0142049
643.576	0.0143154
643.655	0.0142269
643.733	0.0141792
643.811	0.0143090
643.889	0.0142445
643.967	0.0142954
644.045	0.0142642
644.123	0.0143044
644.201	0.0142873
644.280	0.0142918
644.358	0.0142747
644.436	0.0142189
644.514	0.0142472
644.592	0.0141872
644.670	0.0142958
644.748	0.0142200
644.826	0.0143564
644.905	0.0141705
644.983	0.0143578
645.061	0.0143137
645.139	0.0143198
645.217	0.0142761
645.295	0.0142711
645.373	0.0142814
645.451	0.0143295
645.530	0.0143501
645.608	0.0142764
645.686	0.0142870
645.764	0.0142340
645.842	0.0142524
645.920	0.0143002
645.998	0.0143365
646.076	0.0143641
646.155	0.0142244
646.233	0.0142995
646.311	0.0142216
646.389	0.0143391
646.467	0.0143073
646.545	0.0144197
646.623	0.0142706
646.701	0.0141383
646.780	0.0144154
646.858	0.0143382
646.936	0.0143789
647.014	0.0142614
647.092	0.0143786
647.170	0.0143345
647.248	0.0143681
647.326	0.0142365
647.405	0.0142598
647.483	0.0143909
647.561	0.0142616
647.639	0.0142655
647.717	0.0142641
647.795	0.0143960
647.873	0.0143607
647.951	0.0143291
648.030	0.0142432
648.108	0.0143158
648.186	0.0141877
648.264	0.0142867
648.342	0.0141917
648.420	0.0144305
648.498	0.0143598
648.576	0.0142262
648.655	0.0142738
648.733	0.0143597
648.811	0.0143185
648.889	0.0142284
648.967	0.0144622
649.045	0.0143740
649.123	0.0143053
649.201	0.0142211
649.280	0.0143154
649.358	0.0143578
649.436	0.0143104
649.514	0.0142951
649.592	0.0143958
649.670	0.0143875
649.748	0.0143056
649.826	0.0142229
649.905	0.0142059
649.983	0.0142590
650.061	0.0143664
650.139	0.0142786
650.217	0.0143062
650.295	0.0142854
650.373	0.0142221
650.451	0.0142693
650.530	0.0143722
650.608	0.0142200
650.686	0.0142310
650.764	0.0143277
650.842	0.0141197
650.920	0.0142789
650.998	0.0143092
651.076	0.0143175
651.155	0.0143039
651.233	0.0143377
651.311	0.0142339
651.389	0.0142449
651.467	0.0142184
651.545	0.0143106
651.623	0.0143214
651.701	0.0142958
651.780	0.0143375
651.858	0.0142201
651.936	0.0142846
652.014	0.0142943
652.092	0.0142387
652.170	0.0142935
652.248	0.0142739
652.326	0.0141154
652.405	0.0142986
652.483	0.0142848
652.561	0.0143222
652.639	0.0143485
652.717	0.0143961
652.795	0.0144498
652.873	0.0142278
652.951	0.0142113
653.030	0.0143479
653.108	0.0142438
653.186	0.0142274
653.264	0.0142714
653.342	0.0144652
653.420	0.0142256
653.498	0.0142780
653.576	0.0143365
653.655	0.0143144
653.733	0.0143704
653.811	0.0142803
653.889	0.0143015
653.967	0.0142339
654.045	0.0142721
654.123	0.0143583
654.201	0.0143304
654.280	0.0142771
654.358	0.0144559
654.436	0.0143808
654.514	0.0141721
654.592	0.0142697
654.670	0.0143221
654.748	0.0142096
654.826	0.0143579
654.905	0.0144134
654.983	0.0141917
655.061	0.0143127
655.139	0.0142827
655.217	0.0142249
655.295	0.0141656
655.373	0.0143368
655.451	0.0143531
655.530	0.0142060
655.608	0.0142635
655.686	0.0145079
655.764	0.0142805
655.842	0.0143336
655.920	0.0143120
655.998	0.0142641
656.076	0.0143869
656.155	0.0142579
656.233	0.0143956
656.311	0.0142496
656.389	0.0141402
656.467	0.0142754
656.545	0.0142796
656.623	0.0144329
656.701	0.0143166
656.780	0.0143899
656.858	0.0142477
656.936	0.0143214
657.014	0.0142487
657.092	0.0142762
657.170	0.0143568
657.248	0.0143656
657.326	0.0142813
657.405	0.0144004
657.483	0.0143806
657.561	0.0143157
657.639	0.0142694
657.717	0.0143348
657.795	0.0143065
657.873	0.0142824
657.951	0.0143194
658.030	0.0142991
658.108	0.0140615
658.186	0.0143072
658.264	0.0143897
658.342	0.0142025
658.420	0.0143632
658.498	0.0142368
658.576	0.0142600
658.655	0.0143410
658.733	0.0142607
658.811	0.0143111
658.889	0.0141748
658.967	0.0142298
659.045	0.0141992
659.123	0.0142848
659.201	0.0143271
659.280	0.0142572
659.358	0.0144645
659.436	0.0142432
659.514	0.0143941
659.592	0.0143898
659.670	0.0142599
659.748	0.0142535
659.826	0.0142343
659.905	0.0143227
659.983	0.0143156
660.061	0.0143559
660.139	0.0143237
660.217	0.0142902
660.295	0.0144375
660.373	0.0143712
660.451	0.0145168
660.530	0.0142473
660.608	0.0144042
660.686	0.0141930
660.764	0.0143169
660.842	0.0142812
660.920	0.0142731
660.998	0.0144261
661.076	0.0143387
661.155	0.0142834
661.233	0.0142696
661.311	0.0142600
661.389	0.0142398
661.467	0.0141965
661.545	0.0143058
661.623	0.0142820
661.701	0.0143237
661.780	0.0144160
661.858	0.0142871
661.936	0.0142915
662.014	0.0143439
662.092	0.0143055
662.170	0.0142197
662.248	0.0143565
662.326	0.0143818
662.405	0.0142755
662.483	0.0142803
662.561	0.0142657
662.639	0.0142274
662.717	0.0142946
662.795	0.0142143
662.873	0.0141589
662.951	0.0142654
663.030	0.0143634
663.108	0.0142429
663.186	0.0141983
663.264	0.0142091
663.342	0.0142975
663.420	0.0143725
663.498	0.0143340
663.576	0.0142165
663.655	0.0143665
663.733	0.0143693
663.811	0.0141954
663.889	0.0142165
663.967	0.0142730
664.045	0.0143627
664.123	0.0142868
664.201	0.0143428
664.280	0.0141150
664.358	0.0144019
664.436	0.0144350
664.514	0.0143401
664.592	0.0143352
664.670	0.0142966
664.748	0.0141222
664.826	0.0142378
664.905	0.0144490
664.983	0.0143787
665.061	0.0142973
665.139	0.0143293
665.217	0.0142405
665.295	0.0142404
665.373	0.0143642
665.451	0.0142106
665.530	0.0144108
665.608	0.0142809
665.686	0.0141641
665.764	0.0143459
665.842	0.0142601
665.920	0.0142033
665.998	0.0142947
666.076	0.0143318
666.155	0.0143023
666.233	0.0142386
666.311	0.0143188
666.389	0.0142300
666.467	0.0142873
666.545	0.0143594
666.623	0.0142117
666.701	0.0141550
666.780	0.0143433
666.858	0.0143626
666.936	0.0142846
667.014	0.0143252
667.092	0.0142717
667.170	0.0143056
667.248	0.0143430
667.326	0.0143180
667.405	0.0142869
667.483	0.0142770
667.561	0.0143860
667.639	0.0143629
667.717	0.0143250
667.795	0.0143340
667.873	0.0142122
667.951	0.0143034
668.030	0.0142718
668.108	0.0141277
668.186	0.0142575
668.264	0.0143024
668.342	0.0143221
668.420	0.0142077
668.498	0.0142838
668.576	0.0142685
668.655	0.0142467
668.733	0.0142745
668.811	0.0143057
668.889	0.0144054
668.967	0.0143731
669.045	0.0142352
669.123	0.0142556
669.201	0.0141737
669.280	0.0142092
669.358	0.0142342
669.436	0.0142973
669.514	0.0143201
669.592	0.0143862
669.670	0.0143014
669.748	0.0141634
669.826	0.0142596
669.905	0.0143670
669.983	0.0142775
670.061	0.0143571
670.139	0.0144342
670.217	0.0143896
670.295	0.0142223
670.373	0.0143150
670.451	0.0144315
670.530	0.0144606
670.608	0.0142072
670.686	0.0141808
670.764	0.0143689
670.842	0.0142837
670.920	0.0141624
670.998	0.0142706
671.076	0.0142787
671.155	0.0143674
671.233	0.0142783
671.311	0.0143062
671.389	0.0142774
671.467	0.0142194
671.545	0.0143954
671.623	0.0142719
671.701	0.0143688
671.780	0.0142908
671.858	0.0143259
671.936	0.0141331
672.014	0.0142965
672.092	0.0143641
672.170	0.0141290
672.248	0.0141990
672.326	0.0143682
672.405	0.0143169
672.483	0.0141689
672.561	0.0142890
672.639	0.0144712
672.717	0.0142841
672.795	0.0142596
672.873	0.0143111
672.951	0.0142850
673.030	0.0142302
673.108	0.0142601
673.186	0.0143124
673.264	0.0142535
673.342	0.0144081
673.420	0.0142362
673.498	0.0143063
673.576	0.0142804
673.655	0.0142419
673.733	0.0142410
673.811	0.0142867
673.889	0.0142587
673.967	0.0142970
674.045	0.0143318
674.123	0.0143353
674.201	0.0142006
674.280	0.0141394
674.358	0.0143044
674.436	0.0142809
674.514	0.0141990
674.592	0.0144211
674.670	0.0143063
674.748	0.0142538
674.826	0.0141898
674.905	0.0144378
674.983	0.0142996
675.061	0.0142454
675.139	0.0143212
675.217	0.0142632
675.295	0.0142120
675.373	0.0141684
675.451	0.0142269
675.530	0.0142492
675.608	0.0141768
675.686	0.0142113
675.764	0.0141879
675.842	0.0142879
675.920	0.0143403
675.998	0.0142384
676.076	0.0142248
676.155	0.0142427
676.233	0.0143437
676.311	0.0143255
676.389	0.0142889
676.467	0.0142168
676.545	0.0142640
676.623	0.0142128
676.701	0.0143226
676.780	0.0143213
676.858	0.0142565
676.936	0.0142215
677.014	0.0142944
677.092	0.0141547
677.170	0.0143159
677.248	0.0143204
677.326	0.0143459
677.405	0.0141937
677.483	0.0143138
677.561	0.0143118
677.639	0.0143406
677.717	0.0143436
677.795	0.0143483
677.873	0.0142558
677.951	0.0144046
678.030	0.0143129
678.108	0.0142634
678.186	0.0142976
678.264	0.0143840
678.342	0.0144267
678.420	0.0143614
678.498	0.0143114
678.576	0.0142595
678.655	0.0141914
678.733	0.0143571
678.811	0.0142172
678.889	0.0142487
678.967	0.0143404
679.045	0.0144319
679.123	0.0142489
679.201	0.0142811
679.280	0.0144110
679.358	0.0143072
679.436	0.0141801
679.514	0.0144741
679.592	0.0143977
679.670	0.0143983
679.748	0.0141973
679.826	0.0143153
679.905	0.0144089
679.983	0.0143139
680.061	0.0143742
680.139	0.0143622
680.217	0.0144678
680.295	0.0143954
680.373	0.0143761
680.451	0.0144022
680.530	0.0143195
680.608	0.0142455
680.686	0.0142859
680.764	0.0143693
680.842	0.0143682
680.920	0.0143149
680.998	0.0143506
681.076	0.0140862
681.155	0.0143208
681.233	0.0141421
681.311	0.0142616
681.389	0.0142830
681.467	0.0142425
681.545	0.0143038
681.623	0.0141838
681.701	0.0141364
681.780	0.0141985
681.858	0.0143184
681.936	0.0144248
682.014	0.0143578
682.092	0.0145189
682.170	0.0145492
682.248	0.0144066
682.326	0.0144106
682.405	0.0143873
682.483	0.0143352
682.561	0.0144420
682.639	0.0143867
682.717	0.0143578
682.795	0.0143856
682.873	0.0142120
682.951	0.0143282
683.030	0.0142432
683.108	0.0143314
683.186	0.0143189
683.264	0.0143196
683.342	0.0143943
683.420	0.0142948
683.498	0.0142614
683.576	0.0142844
683.655	0.0144049
683.733	0.0143513
683.811	0.0142508
683.889	0.0142807
683.967	0.0143755
684.045	0.0144778
684.123	0.0143970
684.201	0.0143643
684.280	0.0144037
684.358	0.0143427
684.436	0.0144464
684.514	0.0143700
684.592	0.0142545
684.670	0.0143036
684.748	0.0143378
684.826	0.0143216
684.905	0.0142964
684.983	0.0141947
685.061	0.0141647
685.139	0.0142635
685.217	0.0144919
685.295	0.0144814
685.373	0.0143031
685.451	0.0144127
685.530	0.0145835
685.608	0.0144778
685.686	0.0145085
685.764	0.0145261
685.842	0.0146388
685.920	0.0146854
685.998	0.0144614
686.076	0.0145007
686.155	0.0143461
686.233	0.0143009
686.311	0.0142317
686.389	0.0141821
686.467	0.0140189
686.545	0.0140546
686.623	0.0141013
686.701	0.0140907
686.780	0.0139702
686.858	0.0140216
686.936	0.0141698
687.014	0.0142609
687.092	0.0141451
687.170	0.0143625
687.248	0.0144444
687.326	0.0144315
687.405	0.0143868
687.483	0.0143552
687.561	0.0144357
687.639	0.0142752
687.717	0.0141674
687.795	0.0143321
687.873	0.0142779
687.951	0.0141528
688.030	0.0141598
688.108	0.0142449
688.186	0.0141738
688.264	0.0141951
688.342	0.0143687
688.420	0.0143013
688.498	0.0143346
688.576	0.0141961
688.655	0.0141095
688.733	0.0141667
688.811	0.0142700
688.889	0.0141353
688.967	0.0141200
689.045	0.0141861
689.123	0.0142097
689.201	0.0140356
689.280	0.0142908
689.358	0.0143031
689.436	0.0144093
689.514	0.0145239
689.592	0.0146281
689.670	0.0145924
689.748	0.0147959
689.826	0.0148721
689.905	0.0148480
689.983	0.0147830
690.061	0.0149461
690.139	0.0148708
690.217	0.0148246
690.295	0.0146737
690.373	0.0145600
690.451	0.0145204
690.530	0.0146301
690.608	0.0144035
690.686	0.0142891
690.764	0.0142346
690.842	0.0141008
690.920	0.0138135
690.998	0.0136682
691.076	0.0135916
691.155	0.0132801
691.233	0.0130669
691.311	0.0131350
691.389	0.0130238
691.467	0.0129327
691.545	0.0130766
691.623	0.0131623
691.701	0.0132160
691.780	0.0135180
691.858	0.0136796
691.936	0.0138398
692.014	0.0142961
692.092	0.0145495
692.170	0.0146334
692.248	0.0148693
692.326	0.0150805
692.405	0.0151746
692.483	0.0154673
692.561	0.0152914
692.639	0.0152049
692.717	0.0151421
692.795	0.0151531
692.873	0.0151090
692.951	0.0148101
693.030	0.0146519
693.108	0.0145594
693.186	0.0142866
693.264	0.0141290
693.342	0.0141134
693.420	0.0140880
693.498	0.0140336
693.576	0.0142396
693.655	0.0143666
693.733	0.0144686
693.811	0.0145630
693.889	0.0146989
693.967	0.0146330
694.045	0.0149248
694.123	0.0148373
694.201	0.0148000
694.280	0.0146494
694.358	0.0144868
694.436	0.0144418
694.514	0.0142052
694.592	0.0140659
694.670	0.0139377
694.748	0.0137653
694.826	0.0138222
694.905	0.0140063
694.983	0.0141385
695.061	0.0140955
695.139	0.0141277
695.217	0.0143034
695.295	0.0144444
695.373	0.0145133
695.451	0.0144992
695.530	0.0144404
695.608	0.0143839
695.686	0.0144014
695.764	0.0143174
695.842	0.0140406
695.920	0.0140300
695.998	0.0139059
696.076	0.0137318
696.155	0.0135851
696.233	0.0133609
696.311	0.0132077
696.389	0.0130704
696.467	0.0130010
696.545	0.0128773
696.623	0.0128269
696.701	0.0127340
696.780	0.0127116
696.858	0.0127547
696.936	0.0129884
697.014	0.0129338
697.092	0.0130402
697.170	0.0133381
697.248	0.0134336
697.326	0.0136835
697.405	0.0137743
697.483	0.0142195
697.561	0.0144572
697.639	0.0145939
697.717	0.0146892
697.795	0.0148547
697.873	0.0150295
697.951	0.0151756
698.030	0.0154353
698.108	0.0155585
698.186	0.0157629
698.264	0.0162051
698.342	0.0164821
698.420	0.0167169
698.498	0.0170122
698.576	0.0173357
698.655	0.0175360
698.733	0.0177467
698.811	0.0176005
698.889	0.0176587
698.967	0.0175718
699.045	0.0174648
699.123	0.0169984
699.201	0.0166761
699.280	0.0163263
699.358	0.0157617
699.436	0.0151287
699.514	0.0145075
699.592	0.0140713
699.670	0.0134702
699.748	0.0130952
699.826	0.0126598
699.905	0.0122559
699.983	0.0121220
700.061	0.0118528
700.139	0.0114224
700.217	0.0113882
700.295	0.0111551
700.373	0.0111195
700.451	0.0109831
700.530	0.0107391
700.608	0.0108049
700.686	0.0106221
700.764	0.0106118
700.842	0.0106549
700.920	0.0104990
700.998	0.0106195
701.076	0.0107824
701.155	0.0110375
701.233	0.0111975
701.311	0.0114329
701.389	0.0120631
701.467	0.0123323
701.545	0.0129382
701.623	0.0134280
701.701	0.0138828
701.780	0.0143658
701.858	0.0149363
701.936	0.0153951
702.014	0.0158533
702.092	0.0164479
702.170	0.0170149
702.248	0.0174467
702.326	0.0178104
702.405	0.0180947
702.483	0.0184380
702.561	0.0185418
702.639	0.0186588
702.717	0.0187714
702.795	0.0188150
702.873	0.0187220
702.951	0.0184241
703.030	0.0181902
703.108	0.0179929
703.186	0.0176192
703.264	0.0173678
703.342	0.0170457
703.420	0.0166530
703.498	0.0162830
703.576	0.0161716
703.655	0.0157664
703.733	0.0154518
703.811	0.0151516
703.889	0.0147215
703.967	0.0147115
704.045	0.0144218
704.123	0.0140308
704.201	0.0137589
704.280	0.0133962
704.358	0.0129446
704.436	0.0128587
704.514	0.0122150
704.592	0.0119498
704.670	0.0116672
704.748	0.0111476
704.826	0.0110722
704.905	0.0109615
704.983	0.0107053
705.061	0.0104678
705.139	0.0105635
705.217	0.0107255
705.295	0.0110154
705.373	0.0113018
705.451	0.0113270
705.530	0.0117542
705.608	0.0121124
705.686	0.0122385
705.764	0.0126868
705.842	0.0131737
705.920	0.0135857
705.998	0.0138177
706.076	0.0141906
706.155	0.0142592
706.233	0.0145063
706.311	0.0146758
706.389	0.0145471
706.467	0.0147195
706.545	0.0148092
706.623	0.0146984
706.701	0.0144273
706.780	0.0141067
706.858	0.0140485
706.936	0.0140691
707.014	0.0139496
707.092	0.0138120
707.170	0.0136588
707.248	0.0137236
707.326	0.0139921
707.405	0.0140161
707.483	0.0143989
707.561	0.0148309
707.639	0.0150589
707.717	0.0155238
707.795	0.0160081
707.873	0.0166022
707.951	0.0170900
708.030	0.0174065
708.108	0.0178406
708.186	0.0181242
708.264	0.0182276
708.342	0.0183556
708.420	0.0183703
708.498	0.0182115
708.576	0.0180630
708.655	0.0177079
708.733	0.0174462
708.811	0.0169909
708.889	0.0166744
708.967	0.0162036
709.045	0.0158034
709.123	0.0154916
709.201	0.0152261
709.280	0.0150564
709.358	0.0147203
709.436	0.0147240
709.514	0.0145491
709.592	0.0145491
709.670	0.0144225
709.748	0.0142844
709.826	0.0140141
709.905	0.0137234
709.983	0.0132803
710.061	0.0129031
710.139	0.0125768
710.217	0.0121858
710.295	0.0118112
710.373	0.0112685
710.451	0.0108936
710.530	0.0105610
710.608	0.0102908
710.686	0.0100687
710.764	0.00994118
710.842	0.0100997
710.920	0.0100867
710.998	0.0103687
711.076	0.0107283
711.155	0.0109644
711.233	0.0115849
711.311	0.0119440
711.389	0.0124743
711.467	0.0129834
711.545	0.0136237
711.623	0.0138496
711.701	0.0142078
711.780	0.0147379
711.858	0.0148917
711.936	0.0151603
712.014	0.0151495
712.092	0.0151192
712.170	0.0151596
712.248	0.0149994
712.326	0.0148856
712.405	0.0147369
712.483	0.0144067
712.561	0.0142152
712.639	0.0139719
712.717	0.0136222
712.795	0.0134351
712.873	0.0134420
712.951	0.0134150
713.030	0.0132536
713.108	0.0135021
713.186	0.0135545
713.264	0.0140799
713.342	0.0143598
713.420	0.0149199
713.498	0.0155724
713.576	0.0160551
713.655	0.0167444
713.733	0.0173732
713.811	0.0177382
713.889	0.0183980
713.967	0.0186538
714.045	0.0188688
714.123	0.0190317
714.201	0.0192499
714.280	0.0192674
714.358	0.0191434
714.436	0.0188206
714.514	0.0183951
714.592	0.0180853
714.670	0.0175220
714.748	0.0171186
714.826	0.0164037
714.905	0.0157845
714.983	0.0154276
715.061	0.0149657
715.139	0.0146355
715.217	0.0140916
715.295	0.0138707
715.373	0.0136592
715.451	0.0134016
715.530	0.0130405
715.608	0.0127680
715.686	0.0124895
715.764	0.0122469
715.842	0.0119901
715.920	0.0116736
715.998	0.0113531
716.076	0.0111639
716.155	0.0109013
716.233	0.0105285
716.311	0.0103873
716.389	0.0101698
716.467	0.0100375
716.545	0.00994202
716.623	0.00997566
716.701	0.00986816
716.780	0.0100746
716.858	0.0104583
716.936	0.0105270
717.014	0.0108270
717.092	0.0110616
717.170	0.0115231
717.248	0.0119250
717.326	0.0123855
717.405	0.0127721
717.483	0.0133110
717.561	0.0138972
717.639	0.0143560
717.717	0.0147980
717.795	0.0155504
717.873	0.0161239
717.951	0.0164481
718.030	0.0167350
718.108	0.0170771
718.186	0.0171577
718.264	0.0171342
718.342	0.0172373
718.420	0.0170062
718.498	0.0165345
718.576	0.0161481
718.655	0.0154844
718.733	0.0149031
718.811	0.0143868
718.889	0.0139552
718.967	0.0134657
719.045	0.0133693
719.123	0.0133470
719.201	0.0133318
719.280	0.0135344
719.358	0.0137331
719.436	0.0140318
719.514	0.0144122
719.592	0.0147377
719.670	0.0152808
719.748	0.0158756
719.826	0.0160621
719.905	0.0165029
719.983	0.0169715
720.061	0.0171388
720.139	0.0174673
720.217	0.0177781
720.295	0.0178358
720.373	0.0180145
720.451	0.0179912
720.530	0.0179109
720.608	0.0177831
720.686	0.0177338
720.764	0.0174303
720.842	0.0169460
720.920	0.0168140
720.998	0.0162881
721.076	0.0158142
721.155	0.0152802
721.233	0.0149163
721.311	0.0145468
721.389	0.0141770
721.467	0.0137550
721.545	0.0134182
721.623	0.0131032
721.701	0.0129549
721.780	0.0128162
721.858	0.0125644
721.936	0.0124459
722.014	0.0122611
722.092	0.0120108
722.170	0.0119188
722.248	0.0115559
722.326	0.0111887
722.405	0.0109373
722.483	0.0106221
722.561	0.0104349
722.639	0.0100005
722.717	0.00999664
722.795	0.00996613
722.873	0.00999763
722.951	0.0101369
723.030	0.0102181
723.108	0.0106785
723.186	0.0110278
723.264	0.0115084
723.342	0.0120527
723.420	0.0124039
723.498	0.0128848
723.576	0.0134937
723.655	0.0140842
723.733	0.0145086
723.811	0.0151107
723.889	0.0153951
723.967	0.0157231
724.045	0.0160049
724.123	0.0162766
724.201	0.0163371
724.280	0.0165691
724.358	0.0167642
724.436	0.0167887
724.514	0.0166557
724.592	0.0166925
724.670	0.0165630
724.748	0.0163847
724.826	0.0160290
724.905	0.0158527
724.983	0.0154739
725.061	0.0151854
725.139	0.0148754
725.217	0.0144967
725.295	0.0142710
725.373	0.0140654
725.451	0.0139414
725.530	0.0139442
725.608	0.0137926
725.686	0.0139824
