05/20/2022	16:15:56	Ver.	4.1	UNKNOWN
Optical Delay	639.982744	Delta X		0.078125	Sweeps	1	Scan Rate	0/0
Coordinates	Axis 1	NaN	Axis 2	NaN	Axis 3	NaN	Axis 4	NaN	Axis 5	NaN	Axis 6	0.000000
TX Power	0.000000	RX Power	0.000000

639.983	0.0140409
640.061	0.0140677
640.139	0.0139588
640.217	0.0140366
640.295	0.0140495
640.373	0.0140823
640.451	0.0140864
640.530	0.0139435
640.608	0.0139532
640.686	0.0140543
640.764	0.0141412
640.842	0.0140154
640.920	0.0140833
640.998	0.0140022
641.076	0.0140330
641.155	0.0140437
641.233	0.0140559
641.311	0.0140170
641.389	0.0141095
641.467	0.0139837
641.545	0.0141086
641.623	0.0140195
641.701	0.0140403
641.780	0.0139931
641.858	0.0139825
641.936	0.0141761
642.014	0.0140983
642.092	0.0140800
642.170	0.0140704
642.248	0.0139767
642.326	0.0139445
642.405	0.0139074
642.483	0.0139678
642.561	0.0139864
642.639	0.0140209
642.717	0.0139368
642.795	0.0139556
642.873	0.0140114
642.951	0.0139634
643.030	0.0139890
643.108	0.0140913
643.186	0.0140942
643.264	0.0140285
643.342	0.0138160
643.420	0.0140411
643.498	0.0138721
643.576	0.0139309
643.655	0.0141048
643.733	0.0140385
643.811	0.0140591
643.889	0.0139937
643.967	0.0139204
644.045	0.0141663
644.123	0.0140253
644.201	0.0140039
644.280	0.0140442
644.358	0.0140098
644.436	0.0141147
644.514	0.0141151
644.592	0.0141769
644.670	0.0140282
644.748	0.0141193
644.826	0.0140103
644.905	0.0140013
644.983	0.0139481
645.061	0.0141386
645.139	0.0140038
645.217	0.0140374
645.295	0.0140445
645.373	0.0141348
645.451	0.0140052
645.530	0.0140938
645.608	0.0139752
645.686	0.0138601
645.764	0.0141828
645.842	0.0140719
645.920	0.0140028
645.998	0.0140952
646.076	0.0140440
646.155	0.0139494
646.233	0.0141538
646.311	0.0141656
646.389	0.0139281
646.467	0.0141254
646.545	0.0140369
646.623	0.0139944
646.701	0.0141011
646.780	0.0140602
646.858	0.0140632
646.936	0.0140417
647.014	0.0141622
647.092	0.0141145
647.170	0.0139964
647.248	0.0142380
647.326	0.0140841
647.405	0.0140639
647.483	0.0140870
647.561	0.0141037
647.639	0.0141151
647.717	0.0139790
647.795	0.0141151
647.873	0.0139592
647.951	0.0140807
648.030	0.0141404
648.108	0.0140150
648.186	0.0139948
648.264	0.0139076
648.342	0.0140135
648.420	0.0140859
648.498	0.0140562
648.576	0.0138796
648.655	0.0139375
648.733	0.0139821
648.811	0.0139506
648.889	0.0140622
648.967	0.0139938
649.045	0.0141139
649.123	0.0139565
649.201	0.0140077
649.280	0.0140860
649.358	0.0139783
649.436	0.0139546
649.514	0.0140845
649.592	0.0139342
649.670	0.0139784
649.748	0.0139057
649.826	0.0140347
649.905	0.0141248
649.983	0.0141146
650.061	0.0140416
650.139	0.0138677
650.217	0.0139017
650.295	0.0139962
650.373	0.0138871
650.451	0.0141681
650.530	0.0139846
650.608	0.0140401
650.686	0.0140082
650.764	0.0139330
650.842	0.0139948
650.920	0.0139949
650.998	0.0140285
651.076	0.0140079
651.155	0.0140333
651.233	0.0140310
651.311	0.0139797
651.389	0.0139872
651.467	0.0139646
651.545	0.0139980
651.623	0.0139601
651.701	0.0141914
651.780	0.0141505
651.858	0.0139310
651.936	0.0140728
652.014	0.0141791
652.092	0.0140527
652.170	0.0140289
652.248	0.0139002
652.326	0.0139947
652.405	0.0140774
652.483	0.0140656
652.561	0.0141919
652.639	0.0140985
652.717	0.0140729
652.795	0.0140672
652.873	0.0141516
652.951	0.0140884
653.030	0.0140311
653.108	0.0139541
653.186	0.0141113
653.264	0.0140144
653.342	0.0140115
653.420	0.0140491
653.498	0.0140433
653.576	0.0140556
653.655	0.0140261
653.733	0.0139650
653.811	0.0141513
653.889	0.0139281
653.967	0.0139801
654.045	0.0140108
654.123	0.0139427
654.201	0.0140489
654.280	0.0140755
654.358	0.0139472
654.436	0.0140727
654.514	0.0142674
654.592	0.0140918
654.670	0.0140536
654.748	0.0140346
654.826	0.0140189
654.905	0.0140723
654.983	0.0140040
655.061	0.0139510
655.139	0.0140815
655.217	0.0139742
655.295	0.0140448
655.373	0.0139063
655.451	0.0138911
655.530	0.0140484
655.608	0.0139644
655.686	0.0139901
655.764	0.0140522
655.842	0.0140797
655.920	0.0139606
655.998	0.0140157
656.076	0.0141951
656.155	0.0141158
656.233	0.0139169
656.311	0.0140034
656.389	0.0140780
656.467	0.0142184
656.545	0.0139638
656.623	0.0139516
656.701	0.0141299
656.780	0.0139794
656.858	0.0140318
656.936	0.0141322
657.014	0.0140469
657.092	0.0139182
657.170	0.0140647
657.248	0.0141667
657.326	0.0138567
657.405	0.0140782
657.483	0.0141438
657.561	0.0139315
657.639	0.0139633
657.717	0.0139698
657.795	0.0140004
657.873	0.0141070
657.951	0.0141834
658.030	0.0140519
658.108	0.0139816
658.186	0.0140594
658.264	0.0140370
658.342	0.0140533
658.420	0.0139854
658.498	0.0140697
658.576	0.0141084
658.655	0.0141103
658.733	0.0139825
658.811	0.0140167
658.889	0.0140682
658.967	0.0140694
659.045	0.0139867
659.123	0.0139227
659.201	0.0140120
659.280	0.0138968
659.358	0.0140750
659.436	0.0139564
659.514	0.0142318
659.592	0.0140536
659.670	0.0139879
659.748	0.0139993
659.826	0.0140786
659.905	0.0139184
659.983	0.0140605
660.061	0.0140675
660.139	0.0139365
660.217	0.0140807
660.295	0.0140858
660.373	0.0141621
660.451	0.0139996
660.530	0.0140204
660.608	0.0140082
660.686	0.0141619
660.764	0.0140545
660.842	0.0140167
660.920	0.0140039
660.998	0.0140575
661.076	0.0140003
661.155	0.0140695
661.233	0.0140503
661.311	0.0138567
661.389	0.0140018
661.467	0.0140175
661.545	0.0140353
661.623	0.0140590
661.701	0.0139388
661.780	0.0141270
661.858	0.0141258
661.936	0.0138670
662.014	0.0139748
662.092	0.0140681
662.170	0.0140883
662.248	0.0139419
662.326	0.0139885
662.405	0.0141077
662.483	0.0140409
662.561	0.0139939
662.639	0.0139206
662.717	0.0140289
662.795	0.0140664
662.873	0.0139291
662.951	0.0140416
663.030	0.0141098
663.108	0.0140350
663.186	0.0138693
663.264	0.0140736
663.342	0.0140599
663.420	0.0140768
663.498	0.0139770
663.576	0.0141264
663.655	0.0139466
663.733	0.0140505
663.811	0.0139858
663.889	0.0140505
663.967	0.0140244
664.045	0.0140375
664.123	0.0140913
664.201	0.0140694
664.280	0.0139003
664.358	0.0139632
664.436	0.0141017
664.514	0.0140522
664.592	0.0140025
664.670	0.0139838
664.748	0.0140997
664.826	0.0141983
664.905	0.0141416
664.983	0.0140718
665.061	0.0141039
665.139	0.0140644
665.217	0.0138652
665.295	0.0140520
665.373	0.0140373
665.451	0.0140434
665.530	0.0140965
665.608	0.0140505
665.686	0.0141409
665.764	0.0139700
665.842	0.0140664
665.920	0.0139613
665.998	0.0137285
666.076	0.0140556
666.155	0.0140360
666.233	0.0141678
666.311	0.0139808
666.389	0.0141449
666.467	0.0140268
666.545	0.0139304
666.623	0.0139314
666.701	0.0141206
666.780	0.0142697
666.858	0.0140653
666.936	0.0140076
667.014	0.0140987
667.092	0.0140701
667.170	0.0140334
667.248	0.0140040
667.326	0.0140182
667.405	0.0139607
667.483	0.0140318
667.561	0.0140965
667.639	0.0140730
667.717	0.0140090
667.795	0.0140676
667.873	0.0141629
667.951	0.0139909
668.030	0.0139301
668.108	0.0140490
668.186	0.0140941
668.264	0.0140679
668.342	0.0139606
668.420	0.0140720
668.498	0.0140292
668.576	0.0140982
668.655	0.0139948
668.733	0.0141246
668.811	0.0140259
668.889	0.0140125
668.967	0.0141916
669.045	0.0140718
669.123	0.0139642
669.201	0.0140691
669.280	0.0140616
669.358	0.0139491
669.436	0.0140203
669.514	0.0141380
669.592	0.0140257
669.670	0.0139469
669.748	0.0140803
669.826	0.0141678
669.905	0.0141451
669.983	0.0139700
670.061	0.0140400
670.139	0.0139622
670.217	0.0139908
670.295	0.0141592
670.373	0.0138435
670.451	0.0139345
670.530	0.0139648
670.608	0.0140651
670.686	0.0140105
670.764	0.0139986
670.842	0.0140913
670.920	0.0140823
670.998	0.0139966
671.076	0.0140219
671.155	0.0140572
671.233	0.0140952
671.311	0.0140009
671.389	0.0140601
671.467	0.0139878
671.545	0.0139581
671.623	0.0139216
671.701	0.0140627
671.780	0.0139449
671.858	0.0140381
671.936	0.0139138
672.014	0.0139993
672.092	0.0140028
672.170	0.0140545
672.248	0.0140974
672.326	0.0141286
672.405	0.0139310
672.483	0.0140759
672.561	0.0141121
672.639	0.0141669
672.717	0.0140699
672.795	0.0139658
672.873	0.0140074
672.951	0.0140255
673.030	0.0140420
673.108	0.0142009
673.186	0.0139742
673.264	0.0140199
673.342	0.0139619
673.420	0.0139321
673.498	0.0140751
673.576	0.0139310
673.655	0.0139882
673.733	0.0141010
673.811	0.0140823
673.889	0.0141034
673.967	0.0140106
674.045	0.0140051
674.123	0.0139458
674.201	0.0140951
674.280	0.0140591
674.358	0.0140433
674.436	0.0140869
674.514	0.0141410
674.592	0.0141957
674.670	0.0140050
674.748	0.0139690
674.826	0.0140026
674.905	0.0141818
674.983	0.0141438
675.061	0.0140870
675.139	0.0139225
675.217	0.0140365
675.295	0.0140010
675.373	0.0140212
675.451	0.0142836
675.530	0.0141145
675.608	0.0142106
675.686	0.0141119
675.764	0.0140842
675.842	0.0141741
675.920	0.0141132
675.998	0.0141888
676.076	0.0140587
676.155	0.0141519
676.233	0.0141732
676.311	0.0140162
676.389	0.0140025
676.467	0.0142744
676.545	0.0142326
676.623	0.0141491
676.701	0.0141834
676.780	0.0141164
676.858	0.0141737
676.936	0.0140887
677.014	0.0139497
677.092	0.0140962
677.170	0.0141680
677.248	0.0140345
677.326	0.0140588
677.405	0.0139705
677.483	0.0140080
677.561	0.0140607
677.639	0.0140911
677.717	0.0139771
677.795	0.0141866
677.873	0.0141016
677.951	0.0140517
678.030	0.0141090
678.108	0.0140755
678.186	0.0140368
678.264	0.0142608
678.342	0.0140631
678.420	0.0141823
678.498	0.0140702
678.576	0.0140690
678.655	0.0140406
678.733	0.0140207
678.811	0.0141180
678.889	0.0140271
678.967	0.0141494
679.045	0.0141271
679.123	0.0141544
679.201	0.0141897
679.280	0.0142032
679.358	0.0139673
679.436	0.0140396
679.514	0.0141025
679.592	0.0140845
679.670	0.0140593
679.748	0.0141139
679.826	0.0140201
679.905	0.0140138
679.983	0.0139865
680.061	0.0139948
680.139	0.0138295
680.217	0.0139922
680.295	0.0138553
680.373	0.0139271
680.451	0.0139283
680.530	0.0138879
680.608	0.0141575
680.686	0.0141078
680.764	0.0141028
680.842	0.0139816
680.920	0.0141814
680.998	0.0142948
681.076	0.0141025
681.155	0.0142140
681.233	0.0142120
681.311	0.0142461
681.389	0.0141317
681.467	0.0141433
681.545	0.0140622
681.623	0.0139796
681.701	0.0139600
681.780	0.0140263
681.858	0.0141238
681.936	0.0139378
682.014	0.0139725
682.092	0.0138625
682.170	0.0138344
682.248	0.0138836
682.326	0.0138789
682.405	0.0139399
682.483	0.0139852
682.561	0.0140395
682.639	0.0140752
682.717	0.0139867
682.795	0.0137965
682.873	0.0141705
682.951	0.0141608
683.030	0.0141180
683.108	0.0141492
683.186	0.0142413
683.264	0.0140799
683.342	0.0141091
683.420	0.0142415
683.498	0.0141773
683.576	0.0140975
683.655	0.0141880
683.733	0.0141267
683.811	0.0140282
683.889	0.0140685
683.967	0.0140874
684.045	0.0140012
684.123	0.0140288
684.201	0.0139314
684.280	0.0141016
684.358	0.0139964
684.436	0.0138962
684.514	0.0140072
684.592	0.0138771
684.670	0.0138795
684.748	0.0138078
684.826	0.0139116
684.905	0.0139747
684.983	0.0140296
685.061	0.0142039
685.139	0.0141412
685.217	0.0142427
685.295	0.0143099
685.373	0.0142142
685.451	0.0141344
685.530	0.0144266
685.608	0.0142078
685.686	0.0141695
685.764	0.0142535
685.842	0.0140717
685.920	0.0138539
685.998	0.0138264
686.076	0.0137598
686.155	0.0136335
686.233	0.0136221
686.311	0.0136723
686.389	0.0135862
686.467	0.0138093
686.545	0.0138853
686.623	0.0139983
686.701	0.0139463
686.780	0.0140258
686.858	0.0141782
686.936	0.0141253
687.014	0.0141263
687.092	0.0141409
687.170	0.0140884
687.248	0.0141282
687.326	0.0139791
687.405	0.0140124
687.483	0.0139339
687.561	0.0138484
687.639	0.0137893
687.717	0.0137352
687.795	0.0137767
687.873	0.0136950
687.951	0.0139390
688.030	0.0138528
688.108	0.0138197
688.186	0.0137727
688.264	0.0140913
688.342	0.0140705
688.420	0.0141329
688.498	0.0141239
688.576	0.0141112
688.655	0.0140777
688.733	0.0141131
688.811	0.0141187
688.889	0.0140990
688.967	0.0140663
689.045	0.0141777
689.123	0.0141441
689.201	0.0143455
689.280	0.0144199
689.358	0.0143565
689.436	0.0144021
689.514	0.0144643
689.592	0.0144372
689.670	0.0144727
689.748	0.0143399
689.826	0.0140994
689.905	0.0139824
689.983	0.0138614
690.061	0.0137944
690.139	0.0136505
690.217	0.0135124
690.295	0.0134962
690.373	0.0135279
690.451	0.0133871
690.530	0.0135082
690.608	0.0135822
690.686	0.0136776
690.764	0.0135948
690.842	0.0136528
690.920	0.0136665
690.998	0.0134866
691.076	0.0134565
691.155	0.0134702
691.233	0.0134054
691.311	0.0134725
691.389	0.0134282
691.467	0.0134367
691.545	0.0134454
691.623	0.0135693
691.701	0.0138549
691.780	0.0138814
691.858	0.0141335
691.936	0.0141429
692.014	0.0141598
692.092	0.0143883
692.170	0.0145717
692.248	0.0146738
692.326	0.0147060
692.405	0.0146357
692.483	0.0148719
692.561	0.0146899
692.639	0.0146056
692.717	0.0147070
692.795	0.0147080
692.873	0.0144920
692.951	0.0144249
693.030	0.0143287
693.108	0.0142451
693.186	0.0142488
693.264	0.0142588
693.342	0.0142350
693.420	0.0140940
693.498	0.0142226
693.576	0.0141726
693.655	0.0141795
693.733	0.0143331
693.811	0.0144717
693.889	0.0144055
693.967	0.0145078
694.045	0.0143362
694.123	0.0143056
694.201	0.0142281
694.280	0.0139738
694.358	0.0136758
694.436	0.0135345
694.514	0.0133173
694.592	0.0131574
694.670	0.0130372
694.748	0.0129375
694.826	0.0130540
694.905	0.0131992
694.983	0.0132697
695.061	0.0135263
695.139	0.0136710
695.217	0.0138824
695.295	0.0138600
695.373	0.0142024
695.451	0.0143356
695.530	0.0144260
695.608	0.0143785
695.686	0.0144521
695.764	0.0145091
695.842	0.0143152
695.920	0.0141658
695.998	0.0140748
696.076	0.0139981
696.155	0.0138898
696.233	0.0136617
696.311	0.0134796
696.389	0.0132503
696.467	0.0131119
696.545	0.0128543
696.623	0.0128829
696.701	0.0126949
696.780	0.0128014
696.858	0.0129319
696.936	0.0132082
697.014	0.0133513
697.092	0.0135432
697.170	0.0138071
697.248	0.0141214
697.326	0.0144411
697.405	0.0147527
697.483	0.0148154
697.561	0.0150469
697.639	0.0152105
697.717	0.0152331
697.795	0.0151674
697.873	0.0153900
697.951	0.0154093
698.030	0.0154546
698.108	0.0155289
698.186	0.0155935
698.264	0.0155666
698.342	0.0155625
698.420	0.0156089
698.498	0.0157117
698.576	0.0157514
698.655	0.0157835
698.733	0.0158248
698.811	0.0158590
698.889	0.0159108
698.967	0.0159117
699.045	0.0157914
699.123	0.0156269
699.201	0.0154264
699.280	0.0150609
699.358	0.0146330
699.436	0.0145198
699.514	0.0141134
699.592	0.0136816
699.670	0.0131944
699.748	0.0128658
699.826	0.0125923
699.905	0.0121547
699.983	0.0118993
700.061	0.0116454
700.139	0.0115456
700.217	0.0113541
700.295	0.0112563
700.373	0.0110352
700.451	0.0108717
700.530	0.0109698
700.608	0.0107469
700.686	0.0106647
700.764	0.0106195
700.842	0.0105777
700.920	0.0105585
700.998	0.0106101
701.076	0.0108299
701.155	0.0110786
701.233	0.0115051
701.311	0.0117949
701.389	0.0123857
701.467	0.0131439
701.545	0.0135914
701.623	0.0142770
701.701	0.0149060
701.780	0.0157228
701.858	0.0163036
701.936	0.0166318
702.014	0.0170951
702.092	0.0175839
702.170	0.0179958
702.248	0.0181757
702.326	0.0183182
702.405	0.0184034
702.483	0.0184086
702.561	0.0183556
702.639	0.0183036
702.717	0.0181863
702.795	0.0179986
702.873	0.0179000
702.951	0.0175959
703.030	0.0175198
703.108	0.0174502
703.186	0.0172821
703.264	0.0169633
703.342	0.0165528
703.420	0.0161646
703.498	0.0158025
703.576	0.0153147
703.655	0.0148267
703.733	0.0142595
703.811	0.0135760
703.889	0.0132905
703.967	0.0128143
704.045	0.0120702
704.123	0.0116221
704.201	0.0110809
704.280	0.0107307
704.358	0.0105578
704.436	0.0101820
704.514	0.00996658
704.592	0.00984200
704.670	0.0101044
704.748	0.00999176
704.826	0.00994583
704.905	0.0103353
704.983	0.0107333
705.061	0.0109933
705.139	0.0113182
705.217	0.0117358
705.295	0.0120081
705.373	0.0123377
705.451	0.0127941
705.530	0.0129765
705.608	0.0132584
705.686	0.0134254
705.764	0.0137305
705.842	0.0139643
705.920	0.0138876
705.998	0.0139542
706.076	0.0140398
706.155	0.0142018
706.233	0.0142042
706.311	0.0141385
706.389	0.0140711
706.467	0.0138890
706.545	0.0139085
706.623	0.0138873
706.701	0.0139727
706.780	0.0140847
706.858	0.0139141
706.936	0.0140167
707.014	0.0141782
707.092	0.0144582
707.170	0.0144635
707.248	0.0147070
707.326	0.0151791
707.405	0.0155692
707.483	0.0158900
707.561	0.0162360
707.639	0.0166938
707.717	0.0169382
707.795	0.0171744
707.873	0.0176147
707.951	0.0177305
708.030	0.0176818
708.108	0.0177295
708.186	0.0177074
708.264	0.0173816
708.342	0.0170598
708.420	0.0169196
708.498	0.0164415
708.576	0.0160592
708.655	0.0154360
708.733	0.0150602
708.811	0.0149006
708.889	0.0145277
708.967	0.0142379
709.045	0.0140878
709.123	0.0138778
709.201	0.0137527
709.280	0.0136137
709.358	0.0134448
709.436	0.0133794
709.514	0.0130177
709.592	0.0128442
709.670	0.0126325
709.748	0.0121745
709.826	0.0118360
709.905	0.0114173
709.983	0.0112177
710.061	0.0107420
710.139	0.0106738
710.217	0.0105090
710.295	0.0102982
710.373	0.0103810
710.451	0.0104197
710.530	0.0103632
710.608	0.0104166
710.686	0.0106165
710.764	0.0111006
710.842	0.0115752
710.920	0.0118819
710.998	0.0123638
711.076	0.0128039
711.155	0.0131492
711.233	0.0138378
711.311	0.0142197
711.389	0.0143974
711.467	0.0148772
711.545	0.0151696
711.623	0.0153553
711.701	0.0152863
711.780	0.0154164
711.858	0.0152088
711.936	0.0149763
712.014	0.0146571
712.092	0.0143684
712.170	0.0140056
712.248	0.0136596
712.326	0.0132626
712.405	0.0129318
712.483	0.0127602
712.561	0.0123922
712.639	0.0124189
712.717	0.0123637
712.795	0.0124792
712.873	0.0126500
712.951	0.0130080
713.030	0.0134176
713.108	0.0138499
713.186	0.0143106
713.264	0.0151208
713.342	0.0156902
713.420	0.0162371
713.498	0.0167242
713.576	0.0173276
713.655	0.0179034
713.733	0.0182519
713.811	0.0184818
713.889	0.0187731
713.967	0.0188238
714.045	0.0186380
714.123	0.0186081
714.201	0.0184131
714.280	0.0180303
714.358	0.0175822
714.436	0.0172079
714.514	0.0166181
714.592	0.0161854
714.670	0.0155550
714.748	0.0149620
714.826	0.0147407
714.905	0.0143255
714.983	0.0138708
715.061	0.0135816
715.139	0.0133105
715.217	0.0130782
715.295	0.0128260
715.373	0.0126016
715.451	0.0124220
715.530	0.0122459
715.608	0.0119829
715.686	0.0116492
715.764	0.0113817
715.842	0.0111942
715.920	0.0109360
715.998	0.0105173
716.076	0.0103756
716.155	0.0101241
716.233	0.0100423
716.311	0.00995613
716.389	0.00984848
716.467	0.00998924
716.545	0.0102353
716.623	0.0103773
716.701	0.0106312
716.780	0.0111385
716.858	0.0112748
716.936	0.0117542
717.014	0.0120596
717.092	0.0124570
717.170	0.0129122
717.248	0.0133231
717.326	0.0137060
717.405	0.0138932
717.483	0.0145044
717.561	0.0148064
717.639	0.0154171
717.717	0.0155688
717.795	0.0159554
717.873	0.0162371
717.951	0.0164204
718.030	0.0163405
718.108	0.0164577
718.186	0.0162390
718.264	0.0158797
718.342	0.0156163
718.420	0.0151220
718.498	0.0146088
718.576	0.0142252
718.655	0.0139265
718.733	0.0136278
718.811	0.0133508
718.889	0.0133435
718.967	0.0133601
719.045	0.0136523
719.123	0.0138122
719.201	0.0141696
719.280	0.0144041
719.358	0.0149350
719.436	0.0152334
719.514	0.0155117
719.592	0.0160296
719.670	0.0164375
719.748	0.0166345
719.826	0.0170831
719.905	0.0170829
719.983	0.0173119
720.061	0.0174269
720.139	0.0174605
720.217	0.0173921
720.295	0.0173180
720.373	0.0172269
720.451	0.0172424
720.530	0.0168216
720.608	0.0164655
720.686	0.0162746
720.764	0.0159180
720.842	0.0155586
720.920	0.0152045
720.998	0.0147118
721.076	0.0143614
721.155	0.0141379
721.233	0.0137103
721.311	0.0133607
721.389	0.0130582
721.467	0.0127252
721.545	0.0125603
721.623	0.0121415
721.701	0.0121137
721.780	0.0119826
721.858	0.0116654
721.936	0.0113312
722.014	0.0112511
722.092	0.0108885
722.170	0.0106371
722.248	0.0103845
722.326	0.0101977
722.405	0.0101500
722.483	0.00986992
722.561	0.00991150
722.639	0.0100125
722.717	0.0103439
722.795	0.0105862
722.873	0.0106727
722.951	0.0112021
723.030	0.0115044
723.108	0.0118601
723.186	0.0122855
723.264	0.0127759
723.342	0.0132280
723.420	0.0136884
723.498	0.0139679
723.576	0.0145303
723.655	0.0149853
723.733	0.0151910
723.811	0.0155064
723.889	0.0158132
723.967	0.0160165
724.045	0.0161749
724.123	0.0163376
724.201	0.0163850
724.280	0.0163743
724.358	0.0164172
724.436	0.0162864
724.514	0.0162638
724.592	0.0158685
724.670	0.0156437
724.748	0.0153876
724.826	0.0148952
724.905	0.0147763
724.983	0.0144212
725.061	0.0141005
725.139	0.0138515
725.217	0.0136381
725.295	0.0134793
725.373	0.0135945
725.451	0.0135202
725.530	0.0136200
725.608	0.0139043
725.686	0.0141267
