05/20/2022	16:17:16	Ver.	4.1	UNKNOWN
Optical Delay	639.982744	Delta X		0.078125	Sweeps	1	Scan Rate	0/0
Coordinates	Axis 1	NaN	Axis 2	NaN	Axis 3	NaN	Axis 4	NaN	Axis 5	NaN	Axis 6	0.000000
TX Power	0.000000	RX Power	0.000000

639.983	0.0141589
640.061	0.0140099
640.139	0.0142409
640.217	0.0140762
640.295	0.0141522
640.373	0.0140529
640.451	0.0142603
640.530	0.0142095
640.608	0.0140834
640.686	0.0142124
640.764	0.0141454
640.842	0.0141385
640.920	0.0141883
640.998	0.0141653
641.076	0.0141201
641.155	0.0142134
641.233	0.0143083
641.311	0.0141034
641.389	0.0140353
641.467	0.0141104
641.545	0.0140504
641.623	0.0141486
641.701	0.0141643
641.780	0.0140698
641.858	0.0141649
641.936	0.0140675
642.014	0.0140100
642.092	0.0140527
642.170	0.0140721
642.248	0.0141106
642.326	0.0141103
642.405	0.0141479
642.483	0.0140897
642.561	0.0141422
642.639	0.0141486
642.717	0.0141566
642.795	0.0140818
642.873	0.0141956
642.951	0.0140700
643.030	0.0140710
643.108	0.0141216
643.186	0.0140354
643.264	0.0141417
643.342	0.0140219
643.420	0.0139978
643.498	0.0142527
643.576	0.0141275
643.655	0.0141045
643.733	0.0141958
643.811	0.0141594
643.889	0.0141503
643.967	0.0140771
644.045	0.0142286
644.123	0.0142245
644.201	0.0141796
644.280	0.0141703
644.358	0.0140558
644.436	0.0140514
644.514	0.0141165
644.592	0.0142606
644.670	0.0141933
644.748	0.0142133
644.826	0.0141830
644.905	0.0142065
644.983	0.0140443
645.061	0.0142255
645.139	0.0140293
645.217	0.0142204
645.295	0.0141506
645.373	0.0141241
645.451	0.0141036
645.530	0.0141472
645.608	0.0142846
645.686	0.0142301
645.764	0.0141096
645.842	0.0140283
645.920	0.0141106
645.998	0.0141421
646.076	0.0142013
646.155	0.0141908
646.233	0.0142336
646.311	0.0141013
646.389	0.0141298
646.467	0.0140586
646.545	0.0141396
646.623	0.0140762
646.701	0.0142109
646.780	0.0142487
646.858	0.0140731
646.936	0.0141631
647.014	0.0140322
647.092	0.0140599
647.170	0.0140575
647.248	0.0141531
647.326	0.0141233
647.405	0.0141119
647.483	0.0141415
647.561	0.0140875
647.639	0.0140595
647.717	0.0141858
647.795	0.0141101
647.873	0.0140667
647.951	0.0140965
648.030	0.0140342
648.108	0.0143026
648.186	0.0142511
648.264	0.0142258
648.342	0.0141887
648.420	0.0141409
648.498	0.0141619
648.576	0.0142154
648.655	0.0142867
648.733	0.0141117
648.811	0.0141306
648.889	0.0140799
648.967	0.0141108
649.045	0.0139867
649.123	0.0139567
649.201	0.0140166
649.280	0.0142628
649.358	0.0139304
649.436	0.0139997
649.514	0.0140822
649.592	0.0141331
649.670	0.0142834
649.748	0.0142467
649.826	0.0142299
649.905	0.0141679
649.983	0.0140884
650.061	0.0142184
650.139	0.0140768
650.217	0.0141640
650.295	0.0140947
650.373	0.0141175
650.451	0.0141934
650.530	0.0142146
650.608	0.0141774
650.686	0.0142390
650.764	0.0142366
650.842	0.0141203
650.920	0.0140952
650.998	0.0142255
651.076	0.0142038
651.155	0.0142957
651.233	0.0141356
651.311	0.0141953
651.389	0.0141435
651.467	0.0141698
651.545	0.0141014
651.623	0.0141068
651.701	0.0142249
651.780	0.0142004
651.858	0.0141282
651.936	0.0141700
652.014	0.0142361
652.092	0.0142847
652.170	0.0142011
652.248	0.0142540
652.326	0.0141607
652.405	0.0141726
652.483	0.0143155
652.561	0.0141869
652.639	0.0141957
652.717	0.0141900
652.795	0.0142112
652.873	0.0141986
652.951	0.0143202
653.030	0.0141988
653.108	0.0142348
653.186	0.0142392
653.264	0.0141180
653.342	0.0142339
653.420	0.0143031
653.498	0.0142033
653.576	0.0142418
653.655	0.0141626
653.733	0.0141523
653.811	0.0142372
653.889	0.0141534
653.967	0.0140846
654.045	0.0141010
654.123	0.0141649
654.201	0.0140475
654.280	0.0141705
654.358	0.0140686
654.436	0.0139879
654.514	0.0139763
654.592	0.0140125
654.670	0.0140983
654.748	0.0142139
654.826	0.0142276
654.905	0.0142286
654.983	0.0141161
655.061	0.0141046
655.139	0.0139526
655.217	0.0141953
655.295	0.0141074
655.373	0.0141336
655.451	0.0141928
655.530	0.0140029
655.608	0.0140803
655.686	0.0141376
655.764	0.0141779
655.842	0.0141129
655.920	0.0140355
655.998	0.0142947
656.076	0.0141352
656.155	0.0141479
656.233	0.0141514
656.311	0.0141274
656.389	0.0141148
656.467	0.0142084
656.545	0.0141447
656.623	0.0142155
656.701	0.0140530
656.780	0.0140447
656.858	0.0140478
656.936	0.0140389
657.014	0.0141892
657.092	0.0140897
657.170	0.0141145
657.248	0.0140473
657.326	0.0141740
657.405	0.0141880
657.483	0.0140111
657.561	0.0140022
657.639	0.0141724
657.717	0.0141647
657.795	0.0141640
657.873	0.0141720
657.951	0.0140856
658.030	0.0141238
658.108	0.0140758
658.186	0.0140994
658.264	0.0139197
658.342	0.0142554
658.420	0.0143102
658.498	0.0139873
658.576	0.0140576
658.655	0.0141386
658.733	0.0143050
658.811	0.0140594
658.889	0.0142172
658.967	0.0140905
659.045	0.0140897
659.123	0.0141628
659.201	0.0141541
659.280	0.0139568
659.358	0.0140938
659.436	0.0141567
659.514	0.0142750
659.592	0.0142607
659.670	0.0141197
659.748	0.0141171
659.826	0.0140639
659.905	0.0141541
659.983	0.0142144
660.061	0.0141336
660.139	0.0142276
660.217	0.0142357
660.295	0.0142969
660.373	0.0142918
660.451	0.0140166
660.530	0.0141621
660.608	0.0142096
660.686	0.0141058
660.764	0.0142352
660.842	0.0141913
660.920	0.0141029
660.998	0.0141132
661.076	0.0142251
661.155	0.0142628
661.233	0.0143646
661.311	0.0141006
661.389	0.0140218
661.467	0.0142024
661.545	0.0142673
661.623	0.0142230
661.701	0.0141146
661.780	0.0140984
661.858	0.0141753
661.936	0.0142789
662.014	0.0141217
662.092	0.0141660
662.170	0.0141022
662.248	0.0141133
662.326	0.0141728
662.405	0.0141690
662.483	0.0142182
662.561	0.0141639
662.639	0.0142023
662.717	0.0141937
662.795	0.0142157
662.873	0.0141872
662.951	0.0142349
663.030	0.0142908
663.108	0.0142278
663.186	0.0141514
663.264	0.0142265
663.342	0.0142496
663.420	0.0141891
663.498	0.0142105
663.576	0.0141843
663.655	0.0142897
663.733	0.0143460
663.811	0.0141486
663.889	0.0140611
663.967	0.0143535
664.045	0.0141578
664.123	0.0141738
664.201	0.0142524
664.280	0.0143053
664.358	0.0143246
664.436	0.0141698
664.514	0.0141537
664.592	0.0141797
664.670	0.0142028
664.748	0.0143361
664.826	0.0143732
664.905	0.0142142
664.983	0.0142710
665.061	0.0140868
665.139	0.0141324
665.217	0.0142123
665.295	0.0142661
665.373	0.0142118
665.451	0.0143658
665.530	0.0142715
665.608	0.0140593
665.686	0.0142138
665.764	0.0142924
665.842	0.0141282
665.920	0.0141792
665.998	0.0142253
666.076	0.0141454
666.155	0.0142347
666.233	0.0142485
666.311	0.0142400
666.389	0.0141592
666.467	0.0142847
666.545	0.0142586
666.623	0.0141702
666.701	0.0142284
666.780	0.0141918
666.858	0.0142044
666.936	0.0142492
667.014	0.0140461
667.092	0.0141103
667.170	0.0142165
667.248	0.0142278
667.326	0.0142001
667.405	0.0141798
667.483	0.0141476
667.561	0.0140710
667.639	0.0141688
667.717	0.0140791
667.795	0.0141313
667.873	0.0142378
667.951	0.0142060
668.030	0.0142404
668.108	0.0141203
668.186	0.0141827
668.264	0.0140598
668.342	0.0140454
668.420	0.0143388
668.498	0.0141526
668.576	0.0141454
668.655	0.0140914
668.733	0.0141713
668.811	0.0142043
668.889	0.0141320
668.967	0.0140211
669.045	0.0139763
669.123	0.0141668
669.201	0.0140556
669.280	0.0140585
669.358	0.0140332
669.436	0.0141845
669.514	0.0140787
669.592	0.0140433
669.670	0.0141370
669.748	0.0142162
669.826	0.0141563
669.905	0.0139767
669.983	0.0139435
670.061	0.0141438
670.139	0.0140968
670.217	0.0141663
670.295	0.0142007
670.373	0.0140673
670.451	0.0140137
670.530	0.0141808
670.608	0.0140166
670.686	0.0140835
670.764	0.0141294
670.842	0.0141176
670.920	0.0140594
670.998	0.0141336
671.076	0.0141397
671.155	0.0140849
671.233	0.0140033
671.311	0.0141013
671.389	0.0141355
671.467	0.0140521
671.545	0.0141539
671.623	0.0140112
671.701	0.0140502
671.780	0.0141553
671.858	0.0140658
671.936	0.0140268
672.014	0.0141219
672.092	0.0140559
672.170	0.0141434
672.248	0.0140298
672.326	0.0139873
672.405	0.0141943
672.483	0.0140717
672.561	0.0141558
672.639	0.0141980
672.717	0.0142345
672.795	0.0139560
672.873	0.0140067
672.951	0.0142285
673.030	0.0139401
673.108	0.0140255
673.186	0.0140292
673.264	0.0141277
673.342	0.0141376
673.420	0.0139123
673.498	0.0140179
673.576	0.0140796
673.655	0.0141014
673.733	0.0140844
673.811	0.0140091
673.889	0.0140648
673.967	0.0140379
674.045	0.0141077
674.123	0.0141500
674.201	0.0140761
674.280	0.0141278
674.358	0.0142127
674.436	0.0140276
674.514	0.0141218
674.592	0.0141061
674.670	0.0141400
674.748	0.0141685
674.826	0.0141084
674.905	0.0141794
674.983	0.0139789
675.061	0.0140667
675.139	0.0142447
675.217	0.0142035
675.295	0.0142062
675.373	0.0141708
675.451	0.0141489
675.530	0.0141634
675.608	0.0141765
675.686	0.0139536
675.764	0.0140448
675.842	0.0141232
675.920	0.0140485
675.998	0.0140447
676.076	0.0142103
676.155	0.0141847
676.233	0.0140266
676.311	0.0142255
676.389	0.0140161
676.467	0.0140548
676.545	0.0140863
676.623	0.0139296
676.701	0.0140219
676.780	0.0141115
676.858	0.0140755
676.936	0.0140844
677.014	0.0141192
677.092	0.0140726
677.170	0.0143585
677.248	0.0141340
677.326	0.0141399
677.405	0.0143558
677.483	0.0142032
677.561	0.0142989
677.639	0.0142389
677.717	0.0141968
677.795	0.0140616
677.873	0.0141330
677.951	0.0141111
678.030	0.0141582
678.108	0.0140742
678.186	0.0140722
678.264	0.0140367
678.342	0.0140000
678.420	0.0141163
678.498	0.0141310
678.576	0.0141700
678.655	0.0141722
678.733	0.0140176
678.811	0.0140063
678.889	0.0142012
678.967	0.0140581
679.045	0.0141153
679.123	0.0141221
679.201	0.0141781
679.280	0.0144087
679.358	0.0142445
679.436	0.0141370
679.514	0.0140745
679.592	0.0142927
679.670	0.0143848
679.748	0.0143594
679.826	0.0141830
679.905	0.0141849
679.983	0.0142525
680.061	0.0141273
680.139	0.0141365
680.217	0.0142226
680.295	0.0140498
680.373	0.0142826
680.451	0.0141673
680.530	0.0141569
680.608	0.0142590
680.686	0.0142487
680.764	0.0142561
680.842	0.0142246
680.920	0.0143232
680.998	0.0142358
681.076	0.0142245
681.155	0.0142616
681.233	0.0141147
681.311	0.0142003
681.389	0.0141991
681.467	0.0142622
681.545	0.0142564
681.623	0.0141762
681.701	0.0142873
681.780	0.0141640
681.858	0.0142006
681.936	0.0142554
682.014	0.0141048
682.092	0.0143053
682.170	0.0142038
682.248	0.0140724
682.326	0.0142413
682.405	0.0141314
682.483	0.0141380
682.561	0.0142181
682.639	0.0140886
682.717	0.0142167
682.795	0.0142258
682.873	0.0142429
682.951	0.0144493
683.030	0.0144418
683.108	0.0142469
683.186	0.0142523
683.264	0.0143147
683.342	0.0143034
683.420	0.0142732
683.498	0.0142667
683.576	0.0140395
683.655	0.0140150
683.733	0.0142865
683.811	0.0141874
683.889	0.0142759
683.967	0.0142445
684.045	0.0143715
684.123	0.0141977
684.201	0.0142799
684.280	0.0143489
684.358	0.0144163
684.436	0.0144164
684.514	0.0142622
684.592	0.0142381
684.670	0.0142902
684.748	0.0142261
684.826	0.0141519
684.905	0.0142502
684.983	0.0141859
685.061	0.0140594
685.139	0.0140808
685.217	0.0140922
685.295	0.0139098
685.373	0.0139537
685.451	0.0139608
685.530	0.0139177
685.608	0.0140858
685.686	0.0141217
685.764	0.0141206
685.842	0.0141433
685.920	0.0143465
685.998	0.0143768
686.076	0.0144336
686.155	0.0145104
686.233	0.0145482
686.311	0.0146755
686.389	0.0146719
686.467	0.0144906
686.545	0.0144413
686.623	0.0145437
686.701	0.0145148
686.780	0.0143498
686.858	0.0141161
686.936	0.0141072
687.014	0.0140563
687.092	0.0141486
687.170	0.0140688
687.248	0.0140141
687.326	0.0141277
687.405	0.0141663
687.483	0.0144278
687.561	0.0145278
687.639	0.0145418
687.717	0.0145000
687.795	0.0146785
687.873	0.0146928
687.951	0.0146324
688.030	0.0145500
688.108	0.0144913
688.186	0.0142240
688.264	0.0141136
688.342	0.0139224
688.420	0.0139140
688.498	0.0137324
688.576	0.0136444
688.655	0.0136477
688.733	0.0135417
688.811	0.0138216
688.889	0.0140510
688.967	0.0141817
689.045	0.0142805
689.123	0.0144109
689.201	0.0146124
689.280	0.0146980
689.358	0.0146376
689.436	0.0143580
689.514	0.0145444
689.592	0.0142850
689.670	0.0140820
689.748	0.0139517
689.826	0.0137487
689.905	0.0134681
689.983	0.0136254
690.061	0.0136418
690.139	0.0138063
690.217	0.0139734
690.295	0.0141354
690.373	0.0143524
690.451	0.0145272
690.530	0.0146255
690.608	0.0145584
690.686	0.0145324
690.764	0.0145713
690.842	0.0144627
690.920	0.0143836
690.998	0.0142094
691.076	0.0140138
691.155	0.0137775
691.233	0.0138280
691.311	0.0139298
691.389	0.0138781
691.467	0.0140788
691.545	0.0142554
691.623	0.0142237
691.701	0.0142963
691.780	0.0147765
691.858	0.0148526
691.936	0.0150153
692.014	0.0149685
692.092	0.0150337
692.170	0.0151158
692.248	0.0150943
692.326	0.0149039
692.405	0.0149235
692.483	0.0147935
692.561	0.0144871
692.639	0.0143372
692.717	0.0142903
692.795	0.0140205
692.873	0.0139191
692.951	0.0137690
693.030	0.0135931
693.108	0.0135110
693.186	0.0134714
693.264	0.0133797
693.342	0.0132358
693.420	0.0130596
693.498	0.0131439
693.576	0.0130946
693.655	0.0129962
693.733	0.0130537
693.811	0.0130299
693.889	0.0130191
693.967	0.0131284
694.045	0.0133520
694.123	0.0134457
694.201	0.0137057
694.280	0.0139825
694.358	0.0142056
694.436	0.0144761
694.514	0.0146184
694.592	0.0147425
694.670	0.0149204
694.748	0.0149692
694.826	0.0149494
694.905	0.0147321
694.983	0.0147877
695.061	0.0146841
695.139	0.0145447
695.217	0.0143326
695.295	0.0140804
695.373	0.0141072
695.451	0.0141746
695.530	0.0141768
695.608	0.0140643
695.686	0.0140851
695.764	0.0143037
695.842	0.0143543
695.920	0.0142529
695.998	0.0142435
696.076	0.0144397
696.155	0.0142403
696.233	0.0142115
696.311	0.0141975
696.389	0.0142757
696.467	0.0143243
696.545	0.0143971
696.623	0.0144965
696.701	0.0145145
696.780	0.0145367
696.858	0.0145472
696.936	0.0145306
697.014	0.0146609
697.092	0.0144452
697.170	0.0144561
697.248	0.0144202
697.326	0.0141349
697.405	0.0142436
697.483	0.0138312
697.561	0.0136996
697.639	0.0136635
697.717	0.0136655
697.795	0.0134793
697.873	0.0135382
697.951	0.0136208
698.030	0.0137438
698.108	0.0139709
698.186	0.0139816
698.264	0.0139731
698.342	0.0140530
698.420	0.0139652
698.498	0.0139578
698.576	0.0140570
698.655	0.0139590
698.733	0.0140218
698.811	0.0138860
698.889	0.0137178
698.967	0.0138681
699.045	0.0136626
699.123	0.0138741
699.201	0.0138229
699.280	0.0139293
699.358	0.0139809
699.436	0.0140991
699.514	0.0142282
699.592	0.0142496
699.670	0.0143976
699.748	0.0141767
699.826	0.0139227
699.905	0.0140079
699.983	0.0138206
700.061	0.0135764
700.139	0.0134007
700.217	0.0132778
700.295	0.0133830
700.373	0.0134267
700.451	0.0132852
700.530	0.0134624
700.608	0.0136508
700.686	0.0137295
700.764	0.0137383
700.842	0.0141357
700.920	0.0142255
700.998	0.0141764
701.076	0.0142051
701.155	0.0142797
701.233	0.0143102
701.311	0.0141209
701.389	0.0139927
701.467	0.0139160
701.545	0.0139447
701.623	0.0140027
701.701	0.0141853
701.780	0.0142192
701.858	0.0145492
701.936	0.0147801
702.014	0.0150427
702.092	0.0152802
702.170	0.0156821
702.248	0.0158691
702.326	0.0161457
702.405	0.0163411
702.483	0.0164465
702.561	0.0165303
702.639	0.0165708
702.717	0.0165639
702.795	0.0165483
702.873	0.0164581
702.951	0.0164302
703.030	0.0161903
703.108	0.0159305
703.186	0.0156952
703.264	0.0154126
703.342	0.0149722
703.420	0.0146767
703.498	0.0143024
703.576	0.0139636
703.655	0.0136658
703.733	0.0133831
703.811	0.0129250
703.889	0.0127480
703.967	0.0124667
704.045	0.0122660
704.123	0.0120392
704.201	0.0117584
704.280	0.0116302
704.358	0.0116219
704.436	0.0115430
704.514	0.0111726
704.592	0.0112274
704.670	0.0112881
704.748	0.0113012
704.826	0.0111803
704.905	0.0111909
704.983	0.0111587
705.061	0.0112952
705.139	0.0113567
705.217	0.0114810
705.295	0.0116271
705.373	0.0117422
705.451	0.0120741
705.530	0.0122441
705.608	0.0128230
705.686	0.0130607
705.764	0.0135014
705.842	0.0142379
705.920	0.0146003
705.998	0.0151428
706.076	0.0155703
706.155	0.0159715
706.233	0.0165993
706.311	0.0169434
706.389	0.0173904
706.467	0.0176405
706.545	0.0177216
706.623	0.0177323
706.701	0.0180043
706.780	0.0178846
706.858	0.0178793
706.936	0.0178678
707.014	0.0177910
707.092	0.0176601
707.170	0.0174992
707.248	0.0173347
707.326	0.0171236
707.405	0.0170681
707.483	0.0168129
707.561	0.0164984
707.639	0.0162840
707.717	0.0162543
707.795	0.0161572
707.873	0.0158329
707.951	0.0156399
708.030	0.0152244
708.108	0.0148600
708.186	0.0145280
708.264	0.0141611
708.342	0.0137389
708.420	0.0133313
708.498	0.0128069
708.576	0.0124606
708.655	0.0120094
708.733	0.0116019
708.811	0.0112872
708.889	0.0108600
708.967	0.0106330
709.045	0.0106353
709.123	0.0107303
709.201	0.0107278
709.280	0.0104872
709.358	0.0107362
709.436	0.0108305
709.514	0.0109135
709.592	0.0110184
709.670	0.0111778
709.748	0.0113225
709.826	0.0115091
709.905	0.0115553
709.983	0.0118893
710.061	0.0121078
710.139	0.0124043
710.217	0.0127406
710.295	0.0131426
710.373	0.0135799
710.451	0.0140749
710.530	0.0145542
710.608	0.0149409
710.686	0.0153423
710.764	0.0157350
710.842	0.0160603
710.920	0.0161461
710.998	0.0163119
711.076	0.0162801
711.155	0.0160790
711.233	0.0158956
711.311	0.0158350
711.389	0.0155179
711.467	0.0155853
711.545	0.0152677
711.623	0.0151711
711.701	0.0150828
711.780	0.0149509
711.858	0.0148328
711.936	0.0149821
712.014	0.0149780
712.092	0.0149564
712.170	0.0150955
712.248	0.0151531
712.326	0.0150755
712.405	0.0152114
712.483	0.0153687
712.561	0.0153022
712.639	0.0151426
712.717	0.0151016
712.795	0.0151412
712.873	0.0152813
712.951	0.0152224
713.030	0.0152710
713.108	0.0151852
713.186	0.0151743
713.264	0.0153195
713.342	0.0152989
713.420	0.0153989
713.498	0.0154416
713.576	0.0152909
713.655	0.0152461
713.733	0.0152517
713.811	0.0151745
713.889	0.0150485
713.967	0.0148083
714.045	0.0146644
714.123	0.0146046
714.201	0.0142804
714.280	0.0142400
714.358	0.0139936
714.436	0.0138263
714.514	0.0136380
714.592	0.0133890
714.670	0.0131353
714.748	0.0128246
714.826	0.0125261
714.905	0.0122414
714.983	0.0119379
715.061	0.0118089
715.139	0.0116650
715.217	0.0114155
715.295	0.0113145
715.373	0.0113805
715.451	0.0114153
715.530	0.0115060
715.608	0.0116840
715.686	0.0119437
715.764	0.0121773
715.842	0.0124802
715.920	0.0128493
715.998	0.0132211
716.076	0.0133170
716.155	0.0135469
716.233	0.0142909
716.311	0.0146299
716.389	0.0148697
716.467	0.0151119
716.545	0.0153156
716.623	0.0155811
716.701	0.0156026
716.780	0.0157465
716.858	0.0157061
716.936	0.0157308
717.014	0.0155921
717.092	0.0156131
717.170	0.0153996
717.248	0.0151582
717.326	0.0150255
717.405	0.0147643
717.483	0.0143965
717.561	0.0139210
717.639	0.0137087
717.717	0.0133552
717.795	0.0129405
717.873	0.0126623
717.951	0.0126098
718.030	0.0123746
718.108	0.0123652
718.186	0.0125024
718.264	0.0126680
718.342	0.0128599
718.420	0.0133096
718.498	0.0136416
718.576	0.0141082
718.655	0.0146597
718.733	0.0151311
718.811	0.0154178
718.889	0.0158723
718.967	0.0163607
719.045	0.0165649
719.123	0.0169345
719.201	0.0172014
719.280	0.0171322
719.358	0.0171130
719.436	0.0171166
719.514	0.0170887
719.592	0.0168285
719.670	0.0166727
719.748	0.0163811
719.826	0.0162862
719.905	0.0160615
719.983	0.0159554
720.061	0.0156721
720.139	0.0154390
720.217	0.0153149
720.295	0.0153531
720.373	0.0150446
720.451	0.0149709
720.530	0.0146573
720.608	0.0145786
720.686	0.0144697
720.764	0.0142654
720.842	0.0139395
720.920	0.0138464
720.998	0.0134499
721.076	0.0130766
721.155	0.0129075
721.233	0.0125764
721.311	0.0121547
721.389	0.0116813
721.467	0.0114026
721.545	0.0109435
721.623	0.0107584
721.701	0.0102341
721.780	0.00999313
721.858	0.0101141
721.936	0.00993774
722.014	0.00980270
722.092	0.00995079
722.170	0.0101441
722.248	0.0103769
722.326	0.0108539
722.405	0.0114095
722.483	0.0119775
722.561	0.0125807
722.639	0.0134238
722.717	0.0140503
722.795	0.0146404
722.873	0.0152604
722.951	0.0157088
723.030	0.0161849
723.108	0.0164203
723.186	0.0165300
723.264	0.0164221
723.342	0.0164469
723.420	0.0163763
723.498	0.0160583
723.576	0.0158393
723.655	0.0154664
723.733	0.0149556
723.811	0.0148705
723.889	0.0144762
723.967	0.0143397
724.045	0.0140451
724.123	0.0140405
724.201	0.0140302
724.280	0.0138676
724.358	0.0138402
724.436	0.0137237
724.514	0.0137160
724.592	0.0137054
724.670	0.0138215
724.748	0.0139801
724.826	0.0141228
724.905	0.0143454
724.983	0.0147699
725.061	0.0149817
725.139	0.0152000
725.217	0.0154487
725.295	0.0159401
725.373	0.0160660
725.451	0.0162592
725.530	0.0164706
725.608	0.0167129
725.686	0.0164892
