05/20/2022	16:02:21	Ver.	4.1	UNKNOWN
Optical Delay	639.989416	Delta X		0.078125	Sweeps	1	Scan Rate	0/0
Coordinates	Axis 1	NaN	Axis 2	NaN	Axis 3	NaN	Axis 4	NaN	Axis 5	NaN	Axis 6	0.000000
TX Power	0.000000	RX Power	0.000000

639.989	0.0148547
640.068	0.0147440
640.146	0.0149090
640.224	0.0148615
640.302	0.0149336
640.380	0.0148830
640.458	0.0148497
640.536	0.0149731
640.614	0.0148232
640.693	0.0148226
640.771	0.0148061
640.849	0.0148431
640.927	0.0149656
641.005	0.0148942
641.083	0.0148129
641.161	0.0148277
641.239	0.0148736
641.318	0.0147601
641.396	0.0149532
641.474	0.0148710
641.552	0.0148956
641.630	0.0147985
641.708	0.0148996
641.786	0.0148940
641.864	0.0149029
641.943	0.0148929
642.021	0.0148664
642.099	0.0149301
642.177	0.0148808
642.255	0.0149340
642.333	0.0150192
642.411	0.0148851
642.489	0.0149510
642.568	0.0148959
642.646	0.0148386
642.724	0.0148568
642.802	0.0149266
642.880	0.0149696
642.958	0.0149114
643.036	0.0147215
643.114	0.0148981
643.193	0.0149635
643.271	0.0148397
643.349	0.0147651
643.427	0.0148560
643.505	0.0149104
643.583	0.0147851
643.661	0.0148569
643.739	0.0149619
643.818	0.0148537
643.896	0.0148306
643.974	0.0147704
644.052	0.0148854
644.130	0.0148779
644.208	0.0147894
644.286	0.0148438
644.364	0.0149152
644.443	0.0148042
644.521	0.0148618
644.599	0.0148233
644.677	0.0148615
644.755	0.0148382
644.833	0.0147863
644.911	0.0149007
644.989	0.0149249
645.068	0.0148866
645.146	0.0148065
645.224	0.0148167
645.302	0.0150140
645.380	0.0148758
645.458	0.0148423
645.536	0.0147987
645.614	0.0148983
645.693	0.0148316
645.771	0.0146962
645.849	0.0148323
645.927	0.0149386
646.005	0.0148093
646.083	0.0149731
646.161	0.0149263
646.239	0.0149193
646.318	0.0147561
646.396	0.0148700
646.474	0.0148727
646.552	0.0148895
646.630	0.0148843
646.708	0.0147210
646.786	0.0148980
646.864	0.0147920
646.943	0.0149265
647.021	0.0147735
647.099	0.0148286
647.177	0.0146977
647.255	0.0148169
647.333	0.0148154
647.411	0.0148202
647.489	0.0148722
647.568	0.0147656
647.646	0.0149111
647.724	0.0147796
647.802	0.0148231
647.880	0.0149111
647.958	0.0148534
648.036	0.0149109
648.114	0.0148498
648.193	0.0149240
648.271	0.0148352
648.349	0.0149680
648.427	0.0147570
648.505	0.0147534
648.583	0.0148906
648.661	0.0148408
648.739	0.0148499
648.818	0.0146581
648.896	0.0146767
648.974	0.0148209
649.052	0.0148163
649.130	0.0147809
649.208	0.0148029
649.286	0.0149760
649.364	0.0148682
649.443	0.0147727
649.521	0.0148271
649.599	0.0147739
649.677	0.0148715
649.755	0.0148317
649.833	0.0148782
649.911	0.0149000
649.989	0.0147885
650.068	0.0148393
650.146	0.0148437
650.224	0.0148330
650.302	0.0147912
650.380	0.0148595
650.458	0.0148966
650.536	0.0148646
650.614	0.0147508
650.693	0.0149302
650.771	0.0149423
650.849	0.0149812
650.927	0.0146992
651.005	0.0147568
651.083	0.0148026
651.161	0.0149097
651.239	0.0148548
651.318	0.0148521
651.396	0.0148036
651.474	0.0148966
651.552	0.0148300
651.630	0.0148449
651.708	0.0147683
651.786	0.0149290
651.864	0.0149266
651.943	0.0149211
652.021	0.0148329
652.099	0.0148483
652.177	0.0148680
652.255	0.0147942
652.333	0.0148199
652.411	0.0150381
652.489	0.0149169
652.568	0.0148493
652.646	0.0148775
652.724	0.0148877
652.802	0.0147878
652.880	0.0149123
652.958	0.0148125
653.036	0.0147079
653.114	0.0148532
653.193	0.0147643
653.271	0.0149534
653.349	0.0150285
653.427	0.0148299
653.505	0.0148123
653.583	0.0149107
653.661	0.0148012
653.739	0.0148338
653.818	0.0150045
653.896	0.0148760
653.974	0.0148914
654.052	0.0149419
654.130	0.0147935
654.208	0.0147762
654.286	0.0146947
654.364	0.0148839
654.443	0.0148713
654.521	0.0148914
654.599	0.0148711
654.677	0.0149076
654.755	0.0148791
654.833	0.0148280
654.911	0.0148643
654.989	0.0147921
655.068	0.0147375
655.146	0.0148565
655.224	0.0149546
655.302	0.0148982
655.380	0.0148397
655.458	0.0147585
655.536	0.0148139
655.614	0.0148246
655.693	0.0149066
655.771	0.0148306
655.849	0.0147598
655.927	0.0150233
656.005	0.0149607
656.083	0.0148268
656.161	0.0148161
656.239	0.0146457
656.318	0.0148839
656.396	0.0149210
656.474	0.0149647
656.552	0.0149001
656.630	0.0148090
656.708	0.0147697
656.786	0.0149680
656.864	0.0149052
656.943	0.0148926
657.021	0.0147771
657.099	0.0146584
657.177	0.0148035
657.255	0.0148479
657.333	0.0148418
657.411	0.0148260
657.489	0.0147223
657.568	0.0148606
657.646	0.0149809
657.724	0.0147093
657.802	0.0148116
657.880	0.0149323
657.958	0.0147972
658.036	0.0148258
658.114	0.0148000
658.193	0.0148544
658.271	0.0149068
658.349	0.0149437
658.427	0.0148001
658.505	0.0149463
658.583	0.0148557
658.661	0.0147869
658.739	0.0148331
658.818	0.0147910
658.896	0.0148845
658.974	0.0149233
659.052	0.0148370
659.130	0.0147424
659.208	0.0148146
659.286	0.0148949
659.364	0.0147910
659.443	0.0149757
659.521	0.0149110
659.599	0.0149998
659.677	0.0149293
659.755	0.0147742
659.833	0.0147810
659.911	0.0148772
659.989	0.0149009
660.068	0.0148277
660.146	0.0148596
660.224	0.0147886
660.302	0.0148958
660.380	0.0148291
660.458	0.0147705
660.536	0.0149265
660.614	0.0147551
660.693	0.0147742
660.771	0.0149409
660.849	0.0149054
660.927	0.0148300
661.005	0.0149318
661.083	0.0149850
661.161	0.0148444
661.239	0.0148499
661.318	0.0147005
661.396	0.0149816
661.474	0.0149335
661.552	0.0149043
661.630	0.0148547
661.708	0.0147696
661.786	0.0149241
661.864	0.0150255
661.943	0.0149407
662.021	0.0147693
662.099	0.0149589
662.177	0.0148013
662.255	0.0147584
662.333	0.0149297
662.411	0.0148515
662.489	0.0147341
662.568	0.0148381
662.646	0.0148612
662.724	0.0148981
662.802	0.0149657
662.880	0.0148714
662.958	0.0148420
663.036	0.0148734
663.114	0.0148309
663.193	0.0148204
663.271	0.0147363
663.349	0.0148981
663.427	0.0149596
663.505	0.0148885
663.583	0.0148956
663.661	0.0148399
663.739	0.0148067
663.818	0.0148382
663.896	0.0148140
663.974	0.0149017
664.052	0.0148811
664.130	0.0148258
664.208	0.0146906
664.286	0.0148766
664.364	0.0149621
664.443	0.0148136
664.521	0.0147713
664.599	0.0147675
664.677	0.0149717
664.755	0.0147812
664.833	0.0149579
664.911	0.0148191
664.989	0.0149778
665.068	0.0149139
665.146	0.0148597
665.224	0.0149117
665.302	0.0147833
665.380	0.0148817
665.458	0.0148035
665.536	0.0149749
665.614	0.0149730
665.693	0.0148933
665.771	0.0148366
665.849	0.0149136
665.927	0.0148513
666.005	0.0146947
666.083	0.0148950
666.161	0.0149212
666.239	0.0148763
666.318	0.0148119
666.396	0.0148155
666.474	0.0149051
666.552	0.0148690
666.630	0.0148248
666.708	0.0147871
666.786	0.0148587
666.864	0.0149016
666.943	0.0148040
667.021	0.0148144
667.099	0.0149618
667.177	0.0148167
667.255	0.0148180
667.333	0.0148441
667.411	0.0148524
667.489	0.0149026
667.568	0.0148509
667.646	0.0147699
667.724	0.0149123
667.802	0.0147276
667.880	0.0147668
667.958	0.0148236
668.036	0.0148714
668.114	0.0148083
668.193	0.0149129
668.271	0.0148068
668.349	0.0149345
668.427	0.0148480
668.505	0.0148425
668.583	0.0148900
668.661	0.0148296
668.739	0.0149015
668.818	0.0148025
668.896	0.0149634
668.974	0.0148527
669.052	0.0148745
669.130	0.0149541
669.208	0.0149496
669.286	0.0149058
669.364	0.0148624
669.443	0.0148782
669.521	0.0148322
669.599	0.0150209
669.677	0.0148081
669.755	0.0148941
669.833	0.0147562
669.911	0.0148224
669.989	0.0148785
670.068	0.0149197
670.146	0.0148205
670.224	0.0148203
670.302	0.0149731
670.380	0.0149478
670.458	0.0148004
670.536	0.0148042
670.614	0.0148727
670.693	0.0148209
670.771	0.0147375
670.849	0.0147300
670.927	0.0147472
671.005	0.0149702
671.083	0.0148846
671.161	0.0148485
671.239	0.0147954
671.318	0.0147779
671.396	0.0150098
671.474	0.0146799
671.552	0.0148026
671.630	0.0148306
671.708	0.0147230
671.786	0.0148232
671.864	0.0149342
671.943	0.0148386
672.021	0.0147065
672.099	0.0148001
672.177	0.0149329
672.255	0.0148519
672.333	0.0146542
672.411	0.0146903
672.489	0.0148219
672.568	0.0147338
672.646	0.0148029
672.724	0.0148164
672.802	0.0148171
672.880	0.0148900
672.958	0.0147990
673.036	0.0148299
673.114	0.0148362
673.193	0.0147874
673.271	0.0148970
673.349	0.0148416
673.427	0.0147415
673.505	0.0149397
673.583	0.0148217
673.661	0.0147276
673.739	0.0147964
673.818	0.0147933
673.896	0.0147440
673.974	0.0148311
674.052	0.0147923
674.130	0.0147383
674.208	0.0147648
674.286	0.0148264
674.364	0.0146888
674.443	0.0147601
674.521	0.0147695
674.599	0.0147099
674.677	0.0147332
674.755	0.0147885
674.833	0.0147629
674.911	0.0147279
674.989	0.0149369
675.068	0.0148111
675.146	0.0147617
675.224	0.0148430
675.302	0.0147765
675.380	0.0148691
675.458	0.0149183
675.536	0.0147295
675.614	0.0148515
675.693	0.0148356
675.771	0.0149527
675.849	0.0147056
675.927	0.0148180
676.005	0.0147273
676.083	0.0148665
676.161	0.0149606
676.239	0.0147905
676.318	0.0148070
676.396	0.0150046
676.474	0.0148502
676.552	0.0147703
676.630	0.0149444
676.708	0.0149439
676.786	0.0148657
676.864	0.0149191
676.943	0.0148275
677.021	0.0149054
677.099	0.0149232
677.177	0.0149946
677.255	0.0150369
677.333	0.0149118
677.411	0.0150359
677.489	0.0148976
677.568	0.0148904
677.646	0.0149280
677.724	0.0148858
677.802	0.0149651
677.880	0.0148560
677.958	0.0149788
678.036	0.0149374
678.114	0.0148318
678.193	0.0149332
678.271	0.0150040
678.349	0.0150122
678.427	0.0149189
678.505	0.0149272
678.583	0.0149657
678.661	0.0148823
678.739	0.0148209
678.818	0.0148515
678.896	0.0149357
678.974	0.0148502
679.052	0.0148756
679.130	0.0150214
679.208	0.0148843
679.286	0.0149933
679.364	0.0148517
679.443	0.0149589
679.521	0.0147958
679.599	0.0149039
679.677	0.0148672
679.755	0.0148407
679.833	0.0148537
679.911	0.0149637
679.989	0.0149421
680.068	0.0149639
680.146	0.0150677
680.224	0.0148831
680.302	0.0149472
680.380	0.0149502
680.458	0.0149987
680.536	0.0149651
680.614	0.0149658
680.693	0.0149181
680.771	0.0148978
680.849	0.0149057
680.927	0.0148765
681.005	0.0147617
681.083	0.0149415
681.161	0.0148479
681.239	0.0148051
681.318	0.0147829
681.396	0.0149182
681.474	0.0149887
681.552	0.0149274
681.630	0.0148759
681.708	0.0150389
681.786	0.0150271
681.864	0.0148891
681.943	0.0148981
682.021	0.0148885
682.099	0.0148956
682.177	0.0149516
682.255	0.0148488
682.333	0.0147410
682.411	0.0148558
682.489	0.0148511
682.568	0.0149239
682.646	0.0147394
682.724	0.0148777
682.802	0.0149720
682.880	0.0148315
682.958	0.0148006
683.036	0.0146865
683.114	0.0148416
683.193	0.0148384
683.271	0.0147883
683.349	0.0149021
683.427	0.0149605
683.505	0.0148911
683.583	0.0148560
683.661	0.0147362
683.739	0.0147575
683.818	0.0147920
683.896	0.0148616
683.974	0.0149200
684.052	0.0147634
684.130	0.0148344
684.208	0.0148625
684.286	0.0146936
684.364	0.0148609
684.443	0.0148450
684.521	0.0149151
684.599	0.0148747
684.677	0.0147675
684.755	0.0148795
684.833	0.0148335
684.911	0.0148077
684.989	0.0148987
685.068	0.0148945
685.146	0.0147623
685.224	0.0147768
685.302	0.0147814
685.380	0.0150576
685.458	0.0148800
685.536	0.0148512
685.614	0.0148759
685.693	0.0148727
685.771	0.0148241
685.849	0.0148289
685.927	0.0149238
686.005	0.0148501
686.083	0.0147586
686.161	0.0148096
686.239	0.0147169
686.318	0.0148798
686.396	0.0147727
686.474	0.0148193
686.552	0.0148695
686.630	0.0149146
686.708	0.0149360
686.786	0.0148418
686.864	0.0147870
686.943	0.0147025
687.021	0.0148203
687.099	0.0148846
687.177	0.0148358
687.255	0.0148067
687.333	0.0148956
687.411	0.0149400
687.489	0.0147796
687.568	0.0147297
687.646	0.0147730
687.724	0.0148887
687.802	0.0148949
687.880	0.0149041
687.958	0.0149443
688.036	0.0149145
688.114	0.0149834
688.193	0.0150430
688.271	0.0150315
688.349	0.0148600
688.427	0.0147847
688.505	0.0148255
688.583	0.0149071
688.661	0.0147242
688.739	0.0147083
688.818	0.0145842
688.896	0.0146525
688.974	0.0146671
689.052	0.0147609
689.130	0.0147961
689.208	0.0148476
689.286	0.0150727
689.364	0.0152862
689.443	0.0154757
689.521	0.0154684
689.599	0.0153907
689.677	0.0155006
689.755	0.0153201
689.833	0.0153375
689.911	0.0149137
689.989	0.0147901
690.068	0.0146844
690.146	0.0143752
690.224	0.0141444
690.302	0.0139761
690.380	0.0138805
690.458	0.0138053
690.536	0.0138541
690.614	0.0140067
690.693	0.0142202
690.771	0.0145155
690.849	0.0149313
690.927	0.0153580
691.005	0.0155718
691.083	0.0158121
691.161	0.0160092
691.239	0.0160544
691.318	0.0161684
691.396	0.0161353
691.474	0.0159676
691.552	0.0156959
691.630	0.0155313
691.708	0.0152259
691.786	0.0149912
691.864	0.0147024
691.943	0.0144448
692.021	0.0141013
692.099	0.0139068
692.177	0.0138647
692.255	0.0136977
692.333	0.0136628
692.411	0.0137887
692.489	0.0138346
692.568	0.0139452
692.646	0.0141566
692.724	0.0143392
692.802	0.0144534
692.880	0.0145922
692.958	0.0148724
693.036	0.0149902
693.114	0.0150909
693.193	0.0153795
693.271	0.0154092
693.349	0.0154123
693.427	0.0154648
693.505	0.0154150
693.583	0.0155293
693.661	0.0154240
693.739	0.0152262
693.818	0.0152963
693.896	0.0152280
693.974	0.0151411
694.052	0.0151487
694.130	0.0150404
694.208	0.0148214
694.286	0.0147906
694.364	0.0147790
694.443	0.0147073
694.521	0.0148597
694.599	0.0147251
694.677	0.0147542
694.755	0.0147386
694.833	0.0148108
694.911	0.0149081
694.989	0.0148055
695.068	0.0146669
695.146	0.0150274
695.224	0.0146785
695.302	0.0146577
695.380	0.0146782
695.458	0.0146717
695.536	0.0145595
695.614	0.0143523
695.693	0.0143758
695.771	0.0143671
695.849	0.0144125
695.927	0.0142818
696.005	0.0144313
696.083	0.0143352
696.161	0.0145177
696.239	0.0145619
696.318	0.0147664
696.396	0.0146494
696.474	0.0147675
696.552	0.0149449
696.630	0.0150253
696.708	0.0151563
696.786	0.0152633
696.864	0.0155029
696.943	0.0155654
697.021	0.0155472
697.099	0.0155273
697.177	0.0156435
697.255	0.0157904
697.333	0.0157407
697.411	0.0155167
697.489	0.0154695
697.568	0.0154953
697.646	0.0153274
697.724	0.0151825
697.802	0.0150804
697.880	0.0149184
697.958	0.0148547
698.036	0.0146801
698.114	0.0145299
698.193	0.0143333
698.271	0.0143535
698.349	0.0141746
698.427	0.0143317
698.505	0.0144324
698.583	0.0143184
698.661	0.0143460
698.739	0.0144771
698.818	0.0143923
698.896	0.0145872
698.974	0.0146622
699.052	0.0146732
699.130	0.0146454
699.208	0.0147182
699.286	0.0148380
699.364	0.0147601
699.443	0.0148588
699.521	0.0150931
699.599	0.0147597
699.677	0.0149179
699.755	0.0149840
699.833	0.0147591
699.911	0.0148148
699.989	0.0148190
700.068	0.0148576
700.146	0.0147428
700.224	0.0146819
700.302	0.0146478
700.380	0.0147153
700.458	0.0147443
700.536	0.0147392
700.614	0.0147665
700.693	0.0147091
700.771	0.0147650
700.849	0.0149033
700.927	0.0151163
701.005	0.0151007
701.083	0.0151926
701.161	0.0150760
701.239	0.0152258
701.318	0.0153410
701.396	0.0153204
701.474	0.0152769
701.552	0.0153627
701.630	0.0153539
701.708	0.0151667
701.786	0.0151207
701.864	0.0150244
701.943	0.0149778
702.021	0.0150231
702.099	0.0148910
702.177	0.0147673
702.255	0.0146704
702.333	0.0147634
702.411	0.0146473
702.489	0.0146306
702.568	0.0146091
702.646	0.0146227
702.724	0.0146266
702.802	0.0146157
702.880	0.0145929
702.958	0.0146502
703.036	0.0146201
703.114	0.0146889
703.193	0.0146642
703.271	0.0147265
703.349	0.0147502
703.427	0.0147755
703.505	0.0148995
703.583	0.0148836
703.661	0.0149117
703.739	0.0148647
703.818	0.0150772
703.896	0.0148819
703.974	0.0148129
704.052	0.0149126
704.130	0.0149442
704.208	0.0150215
704.286	0.0149418
704.364	0.0149522
704.443	0.0150059
704.521	0.0150260
704.599	0.0150172
704.677	0.0150116
704.755	0.0149222
704.833	0.0149688
704.911	0.0150353
704.989	0.0149527
705.068	0.0149760
705.146	0.0150620
705.224	0.0150433
705.302	0.0150638
705.380	0.0149995
705.458	0.0148135
705.536	0.0148494
705.614	0.0148175
705.693	0.0148734
705.771	0.0148180
705.849	0.0147787
705.927	0.0147279
706.005	0.0147493
706.083	0.0147514
706.161	0.0147587
706.239	0.0148926
706.318	0.0149603
706.396	0.0148970
706.474	0.0149383
706.552	0.0148711
706.630	0.0150355
706.708	0.0149942
706.786	0.0148646
706.864	0.0149113
706.943	0.0149819
707.021	0.0148790
707.099	0.0149041
707.177	0.0148986
707.255	0.0148900
707.333	0.0148087
707.411	0.0147087
707.489	0.0146748
707.568	0.0146447
707.646	0.0146966
707.724	0.0147340
707.802	0.0147881
707.880	0.0148374
707.958	0.0147257
708.036	0.0147446
708.114	0.0146426
708.193	0.0149367
708.271	0.0147503
708.349	0.0148676
708.427	0.0149603
708.505	0.0150227
708.583	0.0149971
708.661	0.0149969
708.739	0.0149803
708.818	0.0150871
708.896	0.0150378
708.974	0.0148917
709.052	0.0150175
709.130	0.0150398
709.208	0.0149445
709.286	0.0148454
709.364	0.0149089
709.443	0.0147499
709.521	0.0147976
709.599	0.0148441
709.677	0.0147128
709.755	0.0148640
709.833	0.0147646
709.911	0.0148116
709.989	0.0149438
710.068	0.0148329
710.146	0.0147045
710.224	0.0148343
710.302	0.0147363
710.380	0.0147834
710.458	0.0148144
710.536	0.0147152
710.614	0.0148282
710.693	0.0146859
710.771	0.0149269
710.849	0.0147957
710.927	0.0147739
711.005	0.0146978
711.083	0.0148371
711.161	0.0150130
711.239	0.0149329
711.318	0.0149738
711.396	0.0150348
711.474	0.0150467
711.552	0.0150280
711.630	0.0151165
711.708	0.0150340
711.786	0.0151243
711.864	0.0150658
711.943	0.0148869
712.021	0.0150897
712.099	0.0150811
712.177	0.0150048
712.255	0.0149136
712.333	0.0149432
712.411	0.0148416
712.489	0.0149115
712.568	0.0148186
712.646	0.0147805
712.724	0.0148959
712.802	0.0148290
712.880	0.0147264
712.958	0.0146603
713.036	0.0147596
713.114	0.0148755
713.193	0.0147621
713.271	0.0148555
713.349	0.0148228
713.427	0.0148505
713.505	0.0149245
713.583	0.0149409
713.661	0.0148382
713.739	0.0149711
713.818	0.0148599
713.896	0.0148399
713.974	0.0148540
714.052	0.0148451
714.130	0.0148300
714.208	0.0149577
714.286	0.0148919
714.364	0.0147510
714.443	0.0145480
714.521	0.0145095
714.599	0.0144605
714.677	0.0146783
714.755	0.0146182
714.833	0.0146131
714.911	0.0144675
714.989	0.0145470
715.068	0.0146275
715.146	0.0146677
715.224	0.0149170
715.302	0.0149463
715.380	0.0150658
715.458	0.0151102
715.536	0.0150401
715.614	0.0152618
715.693	0.0151801
715.771	0.0150662
715.849	0.0152594
715.927	0.0151743
716.005	0.0150419
716.083	0.0150285
716.161	0.0151195
716.239	0.0148717
716.318	0.0149610
716.396	0.0148640
716.474	0.0148211
716.552	0.0147721
716.630	0.0146662
716.708	0.0146553
716.786	0.0147951
716.864	0.0146601
716.943	0.0146531
717.021	0.0147070
717.099	0.0148753
717.177	0.0148909
717.255	0.0147861
717.333	0.0147414
717.411	0.0148728
717.489	0.0149097
717.568	0.0147980
717.646	0.0146821
717.724	0.0148647
717.802	0.0149957
717.880	0.0149489
717.958	0.0148569
718.036	0.0148526
718.114	0.0149245
718.193	0.0149275
718.271	0.0150193
718.349	0.0149390
718.427	0.0148820
718.505	0.0148202
718.583	0.0148240
718.661	0.0149092
718.739	0.0149113
718.818	0.0149628
718.896	0.0149409
718.974	0.0148773
719.052	0.0147971
719.130	0.0149044
719.208	0.0147914
719.286	0.0149088
719.364	0.0148896
719.443	0.0148946
719.521	0.0149251
719.599	0.0148125
719.677	0.0148566
719.755	0.0147739
719.833	0.0150356
719.911	0.0149766
719.989	0.0148941
720.068	0.0147214
720.146	0.0147840
720.224	0.0148211
720.302	0.0147628
720.380	0.0149207
720.458	0.0149716
720.536	0.0149427
720.614	0.0150571
720.693	0.0147076
720.771	0.0149285
720.849	0.0149310
720.927	0.0149294
721.005	0.0149024
721.083	0.0149060
721.161	0.0149031
721.239	0.0149608
721.318	0.0150090
721.396	0.0146138
721.474	0.0147212
721.552	0.0147285
721.630	0.0147945
721.708	0.0149295
721.786	0.0148752
721.864	0.0146991
721.943	0.0149019
722.021	0.0148444
722.099	0.0149098
722.177	0.0148948
722.255	0.0149427
722.333	0.0150961
722.411	0.0149785
722.489	0.0149241
722.568	0.0151248
722.646	0.0151632
722.724	0.0149347
722.802	0.0149744
722.880	0.0149847
722.958	0.0148876
723.036	0.0149846
723.114	0.0149240
723.193	0.0148609
723.271	0.0148348
723.349	0.0147367
723.427	0.0148061
723.505	0.0148685
723.583	0.0147473
723.661	0.0146838
723.739	0.0147631
723.818	0.0146099
723.896	0.0146446
723.974	0.0146693
724.052	0.0146910
724.130	0.0146158
724.208	0.0145499
724.286	0.0146323
724.364	0.0146902
724.443	0.0147697
724.521	0.0146665
724.599	0.0148662
724.677	0.0148009
724.755	0.0149022
724.833	0.0148765
724.911	0.0149648
724.989	0.0149090
725.068	0.0148450
725.146	0.0149232
725.224	0.0149828
725.302	0.0149149
725.380	0.0149546
725.458	0.0148653
725.536	0.0149646
725.614	0.0148949
725.693	0.0149155
