05/20/2022	16:19:17	Ver.	4.1	UNKNOWN
Optical Delay	639.982744	Delta X		0.078125	Sweeps	1	Scan Rate	0/0
Coordinates	Axis 1	NaN	Axis 2	NaN	Axis 3	NaN	Axis 4	NaN	Axis 5	NaN	Axis 6	0.000000
TX Power	0.000000	RX Power	0.000000

639.983	0.0149818
640.061	0.0149521
640.139	0.0150325
640.217	0.0150621
640.295	0.0148256
640.373	0.0149162
640.451	0.0150298
640.530	0.0148971
640.608	0.0149128
640.686	0.0148579
640.764	0.0148861
640.842	0.0150039
640.920	0.0150710
640.998	0.0149129
641.076	0.0149100
641.155	0.0149760
641.233	0.0149725
641.311	0.0150316
641.389	0.0149306
641.467	0.0148676
641.545	0.0150181
641.623	0.0149801
641.701	0.0149557
641.780	0.0150397
641.858	0.0150297
641.936	0.0149477
642.014	0.0149286
642.092	0.0149084
642.170	0.0150275
642.248	0.0149641
642.326	0.0150265
642.405	0.0149899
642.483	0.0150465
642.561	0.0149001
642.639	0.0150563
642.717	0.0150764
642.795	0.0150034
642.873	0.0148780
642.951	0.0151189
643.030	0.0149776
643.108	0.0149476
643.186	0.0151391
643.264	0.0149902
643.342	0.0151199
643.420	0.0150964
643.498	0.0150839
643.576	0.0150871
643.655	0.0150408
643.733	0.0150082
643.811	0.0150578
643.889	0.0150191
643.967	0.0151540
644.045	0.0149905
644.123	0.0149577
644.201	0.0149438
644.280	0.0151044
644.358	0.0150155
644.436	0.0151204
644.514	0.0150334
644.592	0.0151740
644.670	0.0149292
644.748	0.0149492
644.826	0.0151012
644.905	0.0150336
644.983	0.0150215
645.061	0.0150207
645.139	0.0149969
645.217	0.0151089
645.295	0.0150961
645.373	0.0151594
645.451	0.0150068
645.530	0.0150033
645.608	0.0151592
645.686	0.0151089
645.764	0.0150031
645.842	0.0149726
645.920	0.0149802
645.998	0.0150468
646.076	0.0149163
646.155	0.0149563
646.233	0.0150301
646.311	0.0148830
646.389	0.0150046
646.467	0.0149841
646.545	0.0149919
646.623	0.0150435
646.701	0.0150833
646.780	0.0149757
646.858	0.0149877
646.936	0.0149018
647.014	0.0149388
647.092	0.0149994
647.170	0.0148712
647.248	0.0150543
647.326	0.0150024
647.405	0.0149865
647.483	0.0148693
647.561	0.0149495
647.639	0.0149587
647.717	0.0150702
647.795	0.0149278
647.873	0.0149195
647.951	0.0148917
648.030	0.0150555
648.108	0.0149005
648.186	0.0150921
648.264	0.0148491
648.342	0.0148717
648.420	0.0147950
648.498	0.0149283
648.576	0.0149303
648.655	0.0149503
648.733	0.0148754
648.811	0.0147752
648.889	0.0149352
648.967	0.0149908
649.045	0.0149894
649.123	0.0147924
649.201	0.0147373
649.280	0.0149350
649.358	0.0149261
649.436	0.0149034
649.514	0.0149416
649.592	0.0148396
649.670	0.0148145
649.748	0.0149117
649.826	0.0148127
649.905	0.0148907
649.983	0.0148930
650.061	0.0147228
650.139	0.0147185
650.217	0.0147459
650.295	0.0149050
650.373	0.0148554
650.451	0.0147486
650.530	0.0148533
650.608	0.0148331
650.686	0.0147713
650.764	0.0148787
650.842	0.0148676
650.920	0.0147112
650.998	0.0149681
651.076	0.0148423
651.155	0.0148889
651.233	0.0148486
651.311	0.0148095
651.389	0.0147449
651.467	0.0149094
651.545	0.0148834
651.623	0.0149565
651.701	0.0148542
651.780	0.0148027
651.858	0.0148247
651.936	0.0148795
652.014	0.0147460
652.092	0.0148211
652.170	0.0148782
652.248	0.0148640
652.326	0.0147447
652.405	0.0148773
652.483	0.0148451
652.561	0.0148444
652.639	0.0149532
652.717	0.0148463
652.795	0.0148846
652.873	0.0148038
652.951	0.0149323
653.030	0.0149461
653.108	0.0148714
653.186	0.0148019
653.264	0.0148342
653.342	0.0147027
653.420	0.0147362
653.498	0.0148924
653.576	0.0149373
653.655	0.0149271
653.733	0.0146730
653.811	0.0148844
653.889	0.0148460
653.967	0.0148129
654.045	0.0147408
654.123	0.0148074
654.201	0.0148719
654.280	0.0148260
654.358	0.0148537
654.436	0.0148296
654.514	0.0148508
654.592	0.0149293
654.670	0.0148587
654.748	0.0148691
654.826	0.0149023
654.905	0.0149764
654.983	0.0148091
655.061	0.0147019
655.139	0.0148032
655.217	0.0149134
655.295	0.0149337
655.373	0.0150166
655.451	0.0149278
655.530	0.0149149
655.608	0.0149825
655.686	0.0149632
655.764	0.0149225
655.842	0.0148379
655.920	0.0148770
655.998	0.0149319
656.076	0.0148303
656.155	0.0149232
656.233	0.0149568
656.311	0.0149045
656.389	0.0150857
656.467	0.0150519
656.545	0.0149454
656.623	0.0148642
656.701	0.0150443
656.780	0.0149635
656.858	0.0148637
656.936	0.0148825
657.014	0.0148508
657.092	0.0149341
657.170	0.0149189
657.248	0.0148320
657.326	0.0149726
657.405	0.0149548
657.483	0.0149599
657.561	0.0150363
657.639	0.0148557
657.717	0.0149175
657.795	0.0147286
657.873	0.0148261
657.951	0.0150047
658.030	0.0150414
658.108	0.0149995
658.186	0.0151035
658.264	0.0149282
658.342	0.0149331
658.420	0.0151076
658.498	0.0148292
658.576	0.0149588
658.655	0.0149468
658.733	0.0149302
658.811	0.0149543
658.889	0.0149387
658.967	0.0149524
659.045	0.0150430
659.123	0.0150220
659.201	0.0150039
659.280	0.0149150
659.358	0.0149796
659.436	0.0150517
659.514	0.0149188
659.592	0.0148321
659.670	0.0150290
659.748	0.0150616
659.826	0.0149019
659.905	0.0150372
659.983	0.0151084
660.061	0.0149708
660.139	0.0150533
660.217	0.0149660
660.295	0.0149343
660.373	0.0150543
660.451	0.0150473
660.530	0.0148962
660.608	0.0149169
660.686	0.0150613
660.764	0.0150653
660.842	0.0149372
660.920	0.0150385
660.998	0.0151104
661.076	0.0150924
661.155	0.0150650
661.233	0.0149811
661.311	0.0151118
661.389	0.0150722
661.467	0.0151459
661.545	0.0151769
661.623	0.0149564
661.701	0.0148640
661.780	0.0151236
661.858	0.0151104
661.936	0.0150970
662.014	0.0149146
662.092	0.0149217
662.170	0.0149186
662.248	0.0148323
662.326	0.0149110
662.405	0.0149154
662.483	0.0150127
662.561	0.0150681
662.639	0.0151198
662.717	0.0150673
662.795	0.0150452
662.873	0.0151135
662.951	0.0150024
663.030	0.0150337
663.108	0.0151102
663.186	0.0150370
663.264	0.0149916
663.342	0.0150745
663.420	0.0149905
663.498	0.0150246
663.576	0.0150951
663.655	0.0152499
663.733	0.0150685
663.811	0.0150310
663.889	0.0151353
663.967	0.0149312
664.045	0.0150469
664.123	0.0151327
664.201	0.0149845
664.280	0.0150339
664.358	0.0150680
664.436	0.0151091
664.514	0.0149046
664.592	0.0150963
664.670	0.0149774
664.748	0.0150412
664.826	0.0151392
664.905	0.0150336
664.983	0.0150967
665.061	0.0150545
665.139	0.0150383
665.217	0.0150819
665.295	0.0151337
665.373	0.0151972
665.451	0.0152074
665.530	0.0150696
665.608	0.0150966
665.686	0.0151019
665.764	0.0150722
665.842	0.0151785
665.920	0.0151494
665.998	0.0150970
666.076	0.0150297
666.155	0.0150749
666.233	0.0152323
666.311	0.0151433
666.389	0.0151440
666.467	0.0151851
666.545	0.0150387
666.623	0.0150689
666.701	0.0151840
666.780	0.0150905
666.858	0.0150601
666.936	0.0149450
667.014	0.0150858
667.092	0.0151160
667.170	0.0150136
667.248	0.0148754
667.326	0.0148539
667.405	0.0150681
667.483	0.0150743
667.561	0.0149901
667.639	0.0151285
667.717	0.0150827
667.795	0.0150264
667.873	0.0150020
667.951	0.0150308
668.030	0.0149214
668.108	0.0150172
668.186	0.0151707
668.264	0.0151065
668.342	0.0150108
668.420	0.0150302
668.498	0.0150066
668.576	0.0150311
668.655	0.0150144
668.733	0.0150151
668.811	0.0149612
668.889	0.0149207
668.967	0.0151071
669.045	0.0150309
669.123	0.0149546
669.201	0.0149472
669.280	0.0151319
669.358	0.0149902
669.436	0.0149954
669.514	0.0149294
669.592	0.0151402
669.670	0.0149709
669.748	0.0149130
669.826	0.0149296
669.905	0.0150465
669.983	0.0149169
670.061	0.0148573
670.139	0.0148703
670.217	0.0148190
670.295	0.0148724
670.373	0.0149143
670.451	0.0147861
670.530	0.0148393
670.608	0.0148422
670.686	0.0148161
670.764	0.0147999
670.842	0.0148038
670.920	0.0148921
670.998	0.0150315
671.076	0.0148930
671.155	0.0149052
671.233	0.0149347
671.311	0.0149403
671.389	0.0149435
671.467	0.0149196
671.545	0.0147986
671.623	0.0147976
671.701	0.0149466
671.780	0.0149834
671.858	0.0149936
671.936	0.0148508
672.014	0.0148110
672.092	0.0147935
672.170	0.0148767
672.248	0.0148076
672.326	0.0146791
672.405	0.0147035
672.483	0.0148920
672.561	0.0146806
672.639	0.0146244
672.717	0.0147410
672.795	0.0147700
672.873	0.0147751
672.951	0.0148113
673.030	0.0147611
673.108	0.0148241
673.186	0.0148676
673.264	0.0148281
673.342	0.0147538
673.420	0.0147971
673.498	0.0148542
673.576	0.0148898
673.655	0.0147385
673.733	0.0148613
673.811	0.0148518
673.889	0.0148894
673.967	0.0148656
674.045	0.0148512
674.123	0.0147805
674.201	0.0148545
674.280	0.0148947
674.358	0.0148231
674.436	0.0148385
674.514	0.0148550
674.592	0.0149020
674.670	0.0148536
674.748	0.0147343
674.826	0.0148142
674.905	0.0149955
674.983	0.0147295
675.061	0.0148087
675.139	0.0148412
675.217	0.0148071
675.295	0.0147853
675.373	0.0148926
675.451	0.0148478
675.530	0.0148497
675.608	0.0148425
675.686	0.0147907
675.764	0.0147857
675.842	0.0148787
675.920	0.0149044
675.998	0.0147703
676.076	0.0148516
676.155	0.0149081
676.233	0.0148061
676.311	0.0148807
676.389	0.0149707
676.467	0.0148713
676.545	0.0148921
676.623	0.0148685
676.701	0.0148914
676.780	0.0150737
676.858	0.0149767
676.936	0.0148115
677.014	0.0150336
677.092	0.0149468
677.170	0.0150709
677.248	0.0150345
677.326	0.0150394
677.405	0.0149837
677.483	0.0148886
677.561	0.0150797
677.639	0.0149271
677.717	0.0149660
677.795	0.0147733
677.873	0.0149111
677.951	0.0150526
678.030	0.0149249
678.108	0.0148862
678.186	0.0149473
678.264	0.0147952
678.342	0.0147914
678.420	0.0149047
678.498	0.0148666
678.576	0.0149123
678.655	0.0148611
678.733	0.0149437
678.811	0.0148673
678.889	0.0148450
678.967	0.0149904
679.045	0.0149403
679.123	0.0149778
679.201	0.0150581
679.280	0.0151488
679.358	0.0151149
679.436	0.0150797
679.514	0.0150146
679.592	0.0150214
679.670	0.0151037
679.748	0.0152781
679.826	0.0149847
679.905	0.0149695
679.983	0.0149051
680.061	0.0149128
680.139	0.0149182
680.217	0.0147536
680.295	0.0146920
680.373	0.0146281
680.451	0.0147478
680.530	0.0149030
680.608	0.0147831
680.686	0.0148062
680.764	0.0148171
680.842	0.0149698
680.920	0.0148464
680.998	0.0148417
681.076	0.0149226
681.155	0.0149712
681.233	0.0151082
681.311	0.0149797
681.389	0.0150325
681.467	0.0150828
681.545	0.0150622
681.623	0.0150886
681.701	0.0150989
681.780	0.0150349
681.858	0.0151816
681.936	0.0152771
682.014	0.0151089
682.092	0.0151057
682.170	0.0151530
682.248	0.0151181
682.326	0.0149890
682.405	0.0150153
682.483	0.0149162
682.561	0.0149249
682.639	0.0148328
682.717	0.0148167
682.795	0.0147897
682.873	0.0146182
682.951	0.0146541
683.030	0.0144709
683.108	0.0145471
683.186	0.0146812
683.264	0.0146114
683.342	0.0146465
683.420	0.0146196
683.498	0.0146722
683.576	0.0147235
683.655	0.0148323
683.733	0.0149052
683.811	0.0149936
683.889	0.0150685
683.967	0.0151476
684.045	0.0153035
684.123	0.0153524
684.201	0.0152014
684.280	0.0154512
684.358	0.0153722
684.436	0.0154334
684.514	0.0153145
684.592	0.0152982
684.670	0.0153152
684.748	0.0152159
684.826	0.0153493
684.905	0.0152489
684.983	0.0152503
685.061	0.0152044
685.139	0.0151512
685.217	0.0149908
685.295	0.0149705
685.373	0.0147683
685.451	0.0146552
685.530	0.0145564
685.608	0.0142950
685.686	0.0145255
685.764	0.0142306
685.842	0.0142429
685.920	0.0142245
685.998	0.0142729
686.076	0.0143153
686.155	0.0143537
686.233	0.0144271
686.311	0.0146774
686.389	0.0148774
686.467	0.0150027
686.545	0.0149938
686.623	0.0150403
686.701	0.0153352
686.780	0.0154162
686.858	0.0153756
686.936	0.0155648
687.014	0.0153984
687.092	0.0153757
687.170	0.0154962
687.248	0.0154426
687.326	0.0153653
687.405	0.0154043
687.483	0.0154508
687.561	0.0154382
687.639	0.0152508
687.717	0.0152299
687.795	0.0151381
687.873	0.0149552
687.951	0.0148969
688.030	0.0147896
688.108	0.0146589
688.186	0.0147292
688.264	0.0146724
688.342	0.0145635
688.420	0.0146207
688.498	0.0147916
688.576	0.0148351
688.655	0.0148831
688.733	0.0147033
688.811	0.0148415
688.889	0.0150401
688.967	0.0150630
689.045	0.0151212
689.123	0.0152002
689.201	0.0152161
689.280	0.0152715
689.358	0.0153349
689.436	0.0153291
689.514	0.0152607
689.592	0.0152499
689.670	0.0152537
689.748	0.0151387
689.826	0.0151602
689.905	0.0151218
689.983	0.0151228
690.061	0.0151392
690.139	0.0150636
690.217	0.0150799
690.295	0.0151345
690.373	0.0149035
690.451	0.0148615
690.530	0.0149261
690.608	0.0148617
690.686	0.0145982
690.764	0.0145158
690.842	0.0144514
690.920	0.0144086
690.998	0.0142193
691.076	0.0142131
691.155	0.0142764
691.233	0.0142926
691.311	0.0143317
691.389	0.0144002
691.467	0.0145296
691.545	0.0146218
691.623	0.0146952
691.701	0.0148656
691.780	0.0148190
691.858	0.0149445
691.936	0.0152537
692.014	0.0153228
692.092	0.0153725
692.170	0.0154281
692.248	0.0155460
692.326	0.0155238
692.405	0.0154005
692.483	0.0154980
692.561	0.0155350
692.639	0.0155905
692.717	0.0154442
692.795	0.0152912
692.873	0.0152930
692.951	0.0154319
693.030	0.0152334
693.108	0.0150439
693.186	0.0149493
693.264	0.0147473
693.342	0.0146234
693.420	0.0144576
693.498	0.0143926
693.576	0.0143585
693.655	0.0143973
693.733	0.0144000
693.811	0.0144510
693.889	0.0144984
693.967	0.0144680
694.045	0.0148098
694.123	0.0148646
694.201	0.0149364
694.280	0.0151141
694.358	0.0151916
694.436	0.0151699
694.514	0.0152682
694.592	0.0154079
694.670	0.0153543
694.748	0.0152041
694.826	0.0153966
694.905	0.0155746
694.983	0.0153202
695.061	0.0154721
695.139	0.0154983
695.217	0.0155257
695.295	0.0155262
695.373	0.0153854
695.451	0.0152264
695.530	0.0150958
695.608	0.0151021
695.686	0.0149630
695.764	0.0146664
695.842	0.0146171
695.920	0.0143878
695.998	0.0144944
696.076	0.0140986
696.155	0.0141679
696.233	0.0140618
696.311	0.0137822
696.389	0.0138658
696.467	0.0138527
696.545	0.0136047
696.623	0.0137150
696.701	0.0137349
696.780	0.0137875
696.858	0.0140750
696.936	0.0141438
697.014	0.0143192
697.092	0.0147348
697.170	0.0149662
697.248	0.0151948
697.326	0.0154947
697.405	0.0156727
697.483	0.0158851
697.561	0.0159554
697.639	0.0160819
697.717	0.0160210
697.795	0.0158440
697.873	0.0156647
697.951	0.0155273
698.030	0.0152831
698.108	0.0149442
698.186	0.0150203
698.264	0.0149599
698.342	0.0149701
698.420	0.0149893
698.498	0.0150958
698.576	0.0151386
698.655	0.0153865
698.733	0.0154870
698.811	0.0157209
698.889	0.0160625
698.967	0.0159544
699.045	0.0157567
699.123	0.0159374
699.201	0.0156522
699.280	0.0154528
699.358	0.0151194
699.436	0.0146609
699.514	0.0145006
699.592	0.0143616
699.670	0.0139623
699.748	0.0138986
699.826	0.0139503
699.905	0.0139374
699.983	0.0140635
700.061	0.0140546
700.139	0.0142887
700.217	0.0144998
700.295	0.0145743
700.373	0.0145692
700.451	0.0148147
700.530	0.0149706
700.608	0.0148129
700.686	0.0148714
700.764	0.0148865
700.842	0.0148153
700.920	0.0146909
700.998	0.0145957
701.076	0.0147047
701.155	0.0147767
701.233	0.0145798
701.311	0.0144209
701.389	0.0145779
701.467	0.0147062
701.545	0.0146275
701.623	0.0146175
701.701	0.0146483
701.780	0.0148151
701.858	0.0148801
701.936	0.0149041
702.014	0.0148293
702.092	0.0151187
702.170	0.0150938
702.248	0.0149228
702.326	0.0149644
702.405	0.0148657
702.483	0.0148116
702.561	0.0147726
702.639	0.0145522
702.717	0.0145048
702.795	0.0144610
702.873	0.0144456
702.951	0.0146279
703.030	0.0145208
703.108	0.0145858
703.186	0.0146775
703.264	0.0146976
703.342	0.0148223
703.420	0.0150256
703.498	0.0150512
703.576	0.0151632
703.655	0.0152939
703.733	0.0153635
703.811	0.0152796
703.889	0.0152590
703.967	0.0151987
704.045	0.0151682
704.123	0.0149258
704.201	0.0150231
704.280	0.0150180
704.358	0.0149554
704.436	0.0150011
704.514	0.0149460
704.592	0.0149613
704.670	0.0149973
704.748	0.0149009
704.826	0.0150002
704.905	0.0149740
704.983	0.0151031
705.061	0.0150838
705.139	0.0149337
705.217	0.0149917
705.295	0.0149045
705.373	0.0148534
705.451	0.0148540
705.530	0.0148403
705.608	0.0148677
705.686	0.0149740
705.764	0.0149653
705.842	0.0150163
705.920	0.0150478
705.998	0.0149458
706.076	0.0150582
706.155	0.0150898
706.233	0.0151054
706.311	0.0150986
706.389	0.0149741
706.467	0.0149697
706.545	0.0152062
706.623	0.0151637
706.701	0.0153458
706.780	0.0153244
706.858	0.0154832
706.936	0.0155999
707.014	0.0156783
707.092	0.0158838
707.170	0.0159930
707.248	0.0160014
707.326	0.0157652
707.405	0.0158178
707.483	0.0156241
707.561	0.0153224
707.639	0.0150762
707.717	0.0148570
707.795	0.0144158
707.873	0.0141745
707.951	0.0138969
708.030	0.0137551
708.108	0.0135570
708.186	0.0134582
708.264	0.0133884
708.342	0.0135337
708.420	0.0133638
708.498	0.0135529
708.576	0.0136580
708.655	0.0137714
708.733	0.0138116
708.811	0.0137196
708.889	0.0137175
708.967	0.0135536
709.045	0.0137192
709.123	0.0136771
709.201	0.0134792
709.280	0.0134565
709.358	0.0135331
709.436	0.0136620
709.514	0.0137323
709.592	0.0140201
709.670	0.0142973
709.748	0.0145581
709.826	0.0149586
709.905	0.0151639
709.983	0.0153281
710.061	0.0156559
710.139	0.0159055
710.217	0.0160993
710.295	0.0161617
710.373	0.0161971
710.451	0.0161461
710.530	0.0162330
710.608	0.0163504
710.686	0.0162131
710.764	0.0162429
710.842	0.0163094
710.920	0.0163947
710.998	0.0163522
711.076	0.0163974
711.155	0.0166624
711.233	0.0168754
711.311	0.0168935
711.389	0.0169611
711.467	0.0170816
711.545	0.0171070
711.623	0.0171182
711.701	0.0171642
711.780	0.0172296
711.858	0.0169729
711.936	0.0168420
712.014	0.0165673
712.092	0.0163818
712.170	0.0162237
712.248	0.0158885
712.326	0.0155410
712.405	0.0151900
712.483	0.0149963
712.561	0.0147244
712.639	0.0143933
712.717	0.0141928
712.795	0.0137261
712.873	0.0134679
712.951	0.0133808
713.030	0.0129643
713.108	0.0127738
713.186	0.0126096
713.264	0.0125084
713.342	0.0122956
713.420	0.0124375
713.498	0.0123202
713.576	0.0124556
713.655	0.0124526
713.733	0.0126114
713.811	0.0129611
713.889	0.0131150
713.967	0.0133408
714.045	0.0136182
714.123	0.0138755
714.201	0.0140253
714.280	0.0141947
714.358	0.0143906
714.436	0.0143482
714.514	0.0144392
714.592	0.0145027
714.670	0.0142204
714.748	0.0144827
714.826	0.0144360
714.905	0.0144358
714.983	0.0145090
715.061	0.0144107
715.139	0.0146744
715.217	0.0148712
715.295	0.0149913
715.373	0.0151756
715.451	0.0154624
715.530	0.0157492
715.608	0.0160555
715.686	0.0159043
715.764	0.0161525
715.842	0.0163042
715.920	0.0162801
715.998	0.0163826
716.076	0.0164227
716.155	0.0163822
716.233	0.0165752
716.311	0.0164303
716.389	0.0165604
716.467	0.0166283
716.545	0.0167009
716.623	0.0166518
716.701	0.0166407
716.780	0.0165214
716.858	0.0164274
716.936	0.0163310
717.014	0.0161947
717.092	0.0159962
717.170	0.0160533
717.248	0.0156775
717.326	0.0155981
717.405	0.0155856
717.483	0.0152924
717.561	0.0152122
717.639	0.0150709
717.717	0.0149440
717.795	0.0149977
717.873	0.0151052
717.951	0.0147849
718.030	0.0147665
718.108	0.0148186
718.186	0.0147471
718.264	0.0148306
718.342	0.0148725
718.420	0.0148306
718.498	0.0149412
718.576	0.0147448
718.655	0.0145781
718.733	0.0146272
718.811	0.0144650
718.889	0.0145622
718.967	0.0144479
719.045	0.0143055
719.123	0.0139122
719.201	0.0139459
719.280	0.0139713
719.358	0.0137032
719.436	0.0135075
719.514	0.0134792
719.592	0.0132219
719.670	0.0133933
719.748	0.0133270
719.826	0.0131322
719.905	0.0130169
719.983	0.0131501
720.061	0.0133479
720.139	0.0132447
720.217	0.0134521
720.295	0.0134856
720.373	0.0138308
720.451	0.0138773
720.530	0.0140627
720.608	0.0143238
720.686	0.0144910
720.764	0.0148685
720.842	0.0149868
720.920	0.0153521
720.998	0.0154628
721.076	0.0155755
721.155	0.0158215
721.233	0.0158720
721.311	0.0158797
721.389	0.0158179
721.467	0.0158884
721.545	0.0158283
721.623	0.0158274
721.701	0.0158353
721.780	0.0157995
721.858	0.0157752
721.936	0.0155158
722.014	0.0154357
722.092	0.0153722
722.170	0.0153497
722.248	0.0153551
722.326	0.0150435
722.405	0.0149754
722.483	0.0149952
722.561	0.0148685
722.639	0.0149201
722.717	0.0150030
722.795	0.0150600
722.873	0.0151553
722.951	0.0153426
723.030	0.0153556
723.108	0.0155137
723.186	0.0156483
723.264	0.0159012
723.342	0.0157764
723.420	0.0157851
723.498	0.0158141
723.576	0.0156600
723.655	0.0156528
723.733	0.0153127
723.811	0.0152129
723.889	0.0150471
723.967	0.0149065
724.045	0.0148358
724.123	0.0146609
724.201	0.0145353
724.280	0.0145853
724.358	0.0147890
724.436	0.0147994
724.514	0.0148175
724.592	0.0148512
724.670	0.0150031
724.748	0.0151272
724.826	0.0153434
724.905	0.0154314
724.983	0.0153836
725.061	0.0153812
725.139	0.0154634
725.217	0.0154796
725.295	0.0154727
725.373	0.0156559
725.451	0.0157081
725.530	0.0156792
725.608	0.0157250
725.686	0.0157229
