05/20/2022	16:22:27	Ver.	4.1	UNKNOWN
Optical Delay	639.982744	Delta X		0.078125	Sweeps	1	Scan Rate	0/0
Coordinates	Axis 1	NaN	Axis 2	NaN	Axis 3	NaN	Axis 4	NaN	Axis 5	NaN	Axis 6	0.000000
TX Power	0.000000	RX Power	0.000000

639.983	0.0141834
640.061	0.0142465
640.139	0.0143015
640.217	0.0142506
640.295	0.0142538
640.373	0.0142860
640.451	0.0142708
640.530	0.0143102
640.608	0.0142956
640.686	0.0140671
640.764	0.0142298
640.842	0.0143429
640.920	0.0142856
640.998	0.0143700
641.076	0.0142336
641.155	0.0141585
641.233	0.0143677
641.311	0.0143237
641.389	0.0143176
641.467	0.0144702
641.545	0.0142908
641.623	0.0140811
641.701	0.0143517
641.780	0.0144804
641.858	0.0142729
641.936	0.0142721
642.014	0.0142819
642.092	0.0142192
642.170	0.0143282
642.248	0.0143596
642.326	0.0141851
642.405	0.0142988
642.483	0.0143241
642.561	0.0141773
642.639	0.0142330
642.717	0.0142870
642.795	0.0142103
642.873	0.0143417
642.951	0.0142561
643.030	0.0142581
643.108	0.0141398
643.186	0.0143390
643.264	0.0142651
643.342	0.0141780
643.420	0.0143156
643.498	0.0142806
643.576	0.0143501
643.655	0.0143108
643.733	0.0143344
643.811	0.0143027
643.889	0.0143703
643.967	0.0142702
644.045	0.0143002
644.123	0.0142246
644.201	0.0144203
644.280	0.0143099
644.358	0.0143149
644.436	0.0142230
644.514	0.0142562
644.592	0.0143207
644.670	0.0143745
644.748	0.0143618
644.826	0.0143691
644.905	0.0143244
644.983	0.0142390
645.061	0.0142587
645.139	0.0143179
645.217	0.0144419
645.295	0.0142741
645.373	0.0143212
645.451	0.0143230
645.530	0.0141938
645.608	0.0143482
645.686	0.0142725
645.764	0.0141790
645.842	0.0142207
645.920	0.0143213
645.998	0.0143925
646.076	0.0142190
646.155	0.0142223
646.233	0.0143848
646.311	0.0142771
646.389	0.0142931
646.467	0.0141702
646.545	0.0142213
646.623	0.0142228
646.701	0.0141836
646.780	0.0142616
646.858	0.0143478
646.936	0.0143095
647.014	0.0142079
647.092	0.0143663
647.170	0.0143045
647.248	0.0141614
647.326	0.0141821
647.405	0.0141410
647.483	0.0143332
647.561	0.0141157
647.639	0.0143256
647.717	0.0143803
647.795	0.0142235
647.873	0.0143038
647.951	0.0143105
648.030	0.0143333
648.108	0.0141377
648.186	0.0142140
648.264	0.0142666
648.342	0.0143143
648.420	0.0141992
648.498	0.0142770
648.576	0.0142586
648.655	0.0142243
648.733	0.0142281
648.811	0.0143150
648.889	0.0142659
648.967	0.0142553
649.045	0.0141422
649.123	0.0141820
649.201	0.0141710
649.280	0.0143490
649.358	0.0141489
649.436	0.0142168
649.514	0.0142773
649.592	0.0141993
649.670	0.0143407
649.748	0.0144276
649.826	0.0143958
649.905	0.0143045
649.983	0.0142001
650.061	0.0144556
650.139	0.0143775
650.217	0.0142190
650.295	0.0142026
650.373	0.0143261
650.451	0.0142274
650.530	0.0143352
650.608	0.0142906
650.686	0.0143120
650.764	0.0143883
650.842	0.0143135
650.920	0.0142805
650.998	0.0141881
651.076	0.0143286
651.155	0.0142738
651.233	0.0143736
651.311	0.0143311
651.389	0.0142181
651.467	0.0141842
651.545	0.0144000
651.623	0.0141864
651.701	0.0142449
651.780	0.0141684
651.858	0.0141451
651.936	0.0143334
652.014	0.0142764
652.092	0.0142466
652.170	0.0142097
652.248	0.0142545
652.326	0.0143118
652.405	0.0142277
652.483	0.0143395
652.561	0.0142306
652.639	0.0142692
652.717	0.0142712
652.795	0.0142673
652.873	0.0140814
652.951	0.0140891
653.030	0.0142460
653.108	0.0142784
653.186	0.0144170
653.264	0.0142417
653.342	0.0142039
653.420	0.0143028
653.498	0.0142356
653.576	0.0141969
653.655	0.0142178
653.733	0.0143059
653.811	0.0142825
653.889	0.0142689
653.967	0.0143838
654.045	0.0142136
654.123	0.0142171
654.201	0.0141673
654.280	0.0141590
654.358	0.0142619
654.436	0.0142100
654.514	0.0142484
654.592	0.0141870
654.670	0.0141312
654.748	0.0142788
654.826	0.0142390
654.905	0.0143394
654.983	0.0143086
655.061	0.0143125
655.139	0.0141901
655.217	0.0142596
655.295	0.0142703
655.373	0.0141727
655.451	0.0141287
655.530	0.0142699
655.608	0.0143091
655.686	0.0141400
655.764	0.0142052
655.842	0.0141595
655.920	0.0142377
655.998	0.0144157
656.076	0.0142274
656.155	0.0141386
656.233	0.0141678
656.311	0.0142294
656.389	0.0142247
656.467	0.0143143
656.545	0.0141084
656.623	0.0142065
656.701	0.0142669
656.780	0.0143298
656.858	0.0141906
656.936	0.0142794
657.014	0.0142205
657.092	0.0143269
657.170	0.0141432
657.248	0.0142554
657.326	0.0142432
657.405	0.0141609
657.483	0.0141832
657.561	0.0142681
657.639	0.0141666
657.717	0.0142419
657.795	0.0143471
657.873	0.0143964
657.951	0.0142538
658.030	0.0141997
658.108	0.0140949
658.186	0.0140572
658.264	0.0140507
658.342	0.0142457
658.420	0.0141118
658.498	0.0142599
658.576	0.0142544
658.655	0.0141690
658.733	0.0141141
658.811	0.0139761
658.889	0.0140849
658.967	0.0141222
659.045	0.0141113
659.123	0.0141035
659.201	0.0140863
659.280	0.0140357
659.358	0.0142023
659.436	0.0141784
659.514	0.0141199
659.592	0.0143111
659.670	0.0141481
659.748	0.0142892
659.826	0.0141596
659.905	0.0142989
659.983	0.0142706
660.061	0.0141682
660.139	0.0141587
660.217	0.0141435
660.295	0.0143239
660.373	0.0141582
660.451	0.0141123
660.530	0.0140751
660.608	0.0142926
660.686	0.0140665
660.764	0.0140065
660.842	0.0141637
660.920	0.0140908
660.998	0.0140638
661.076	0.0141824
661.155	0.0141996
661.233	0.0139617
661.311	0.0141292
661.389	0.0141725
661.467	0.0142434
661.545	0.0141609
661.623	0.0143289
661.701	0.0142913
661.780	0.0141935
661.858	0.0141884
661.936	0.0142355
662.014	0.0143355
662.092	0.0142090
662.170	0.0142249
662.248	0.0140466
662.326	0.0142212
662.405	0.0141931
662.483	0.0141939
662.561	0.0142451
662.639	0.0141947
662.717	0.0142737
662.795	0.0142551
662.873	0.0142599
662.951	0.0142042
663.030	0.0142755
663.108	0.0142775
663.186	0.0143273
663.264	0.0142951
663.342	0.0141708
663.420	0.0141833
663.498	0.0142017
663.576	0.0140550
663.655	0.0141724
663.733	0.0142167
663.811	0.0142397
663.889	0.0142720
663.967	0.0141600
664.045	0.0140752
664.123	0.0141302
664.201	0.0141156
664.280	0.0142008
664.358	0.0142315
664.436	0.0142088
664.514	0.0142605
664.592	0.0141901
664.670	0.0140749
664.748	0.0142187
664.826	0.0142178
664.905	0.0142054
664.983	0.0141804
665.061	0.0142215
665.139	0.0142464
665.217	0.0142839
665.295	0.0141831
665.373	0.0142554
665.451	0.0143275
665.530	0.0141670
665.608	0.0143678
665.686	0.0142708
665.764	0.0143673
665.842	0.0143380
665.920	0.0142741
665.998	0.0142758
666.076	0.0143642
666.155	0.0142962
666.233	0.0144019
666.311	0.0143085
666.389	0.0142561
666.467	0.0143517
666.545	0.0141911
666.623	0.0141867
666.701	0.0142056
666.780	0.0143159
666.858	0.0141990
666.936	0.0142757
667.014	0.0142588
667.092	0.0141098
667.170	0.0141874
667.248	0.0143857
667.326	0.0143644
667.405	0.0142614
667.483	0.0141658
667.561	0.0143011
667.639	0.0143289
667.717	0.0144204
667.795	0.0143769
667.873	0.0144339
667.951	0.0144474
668.030	0.0144150
668.108	0.0145023
668.186	0.0143903
668.264	0.0144968
668.342	0.0144115
668.420	0.0145061
668.498	0.0143005
668.576	0.0141402
668.655	0.0142555
668.733	0.0142178
668.811	0.0142536
668.889	0.0141457
668.967	0.0141544
669.045	0.0142644
669.123	0.0140643
669.201	0.0142226
669.280	0.0141418
669.358	0.0142116
669.436	0.0143061
669.514	0.0141590
669.592	0.0142731
669.670	0.0143893
669.748	0.0143002
669.826	0.0144289
669.905	0.0142983
669.983	0.0145612
670.061	0.0145448
670.139	0.0144762
670.217	0.0145418
670.295	0.0144215
670.373	0.0143330
670.451	0.0144588
670.530	0.0143635
670.608	0.0143410
670.686	0.0142736
670.764	0.0141436
670.842	0.0142476
670.920	0.0141759
670.998	0.0141444
671.076	0.0141582
671.155	0.0140852
671.233	0.0141176
671.311	0.0142393
671.389	0.0142075
671.467	0.0142677
671.545	0.0140574
671.623	0.0141931
671.701	0.0143006
671.780	0.0141942
671.858	0.0141685
671.936	0.0142290
672.014	0.0144413
672.092	0.0142657
672.170	0.0142878
672.248	0.0143615
672.326	0.0143361
672.405	0.0143790
672.483	0.0142331
672.561	0.0142753
672.639	0.0144566
672.717	0.0142226
672.795	0.0144215
672.873	0.0143606
672.951	0.0143328
673.030	0.0143129
673.108	0.0141869
673.186	0.0141609
673.264	0.0141298
673.342	0.0142374
673.420	0.0141808
673.498	0.0142014
673.576	0.0141225
673.655	0.0141545
673.733	0.0141266
673.811	0.0140545
673.889	0.0140289
673.967	0.0142400
674.045	0.0141330
674.123	0.0142146
674.201	0.0142027
674.280	0.0142133
674.358	0.0142181
674.436	0.0142586
674.514	0.0143252
674.592	0.0144391
674.670	0.0144299
674.748	0.0144788
674.826	0.0143771
674.905	0.0144576
674.983	0.0144587
675.061	0.0143404
675.139	0.0143217
675.217	0.0143773
675.295	0.0142532
675.373	0.0142633
675.451	0.0142249
675.530	0.0142010
675.608	0.0142155
675.686	0.0140755
675.764	0.0140829
675.842	0.0140333
675.920	0.0140064
675.998	0.0140427
676.076	0.0141714
676.155	0.0140414
676.233	0.0139767
676.311	0.0141402
676.389	0.0140263
676.467	0.0141631
676.545	0.0143278
676.623	0.0143111
676.701	0.0143266
676.780	0.0141580
676.858	0.0143317
676.936	0.0143730
677.014	0.0143317
677.092	0.0141756
677.170	0.0144085
677.248	0.0143089
677.326	0.0142904
677.405	0.0140871
677.483	0.0142184
677.561	0.0141394
677.639	0.0141411
677.717	0.0139853
677.795	0.0139925
677.873	0.0139558
677.951	0.0139780
678.030	0.0139544
678.108	0.0139109
678.186	0.0138931
678.264	0.0139211
678.342	0.0140141
678.420	0.0140169
678.498	0.0140619
678.576	0.0141008
678.655	0.0142050
678.733	0.0142124
678.811	0.0143375
678.889	0.0143174
678.967	0.0144367
679.045	0.0145397
679.123	0.0145102
679.201	0.0145530
679.280	0.0145335
679.358	0.0145810
679.436	0.0143562
679.514	0.0142318
679.592	0.0142300
679.670	0.0140615
679.748	0.0140250
679.826	0.0138700
679.905	0.0139249
679.983	0.0138196
680.061	0.0138989
680.139	0.0137878
680.217	0.0138380
680.295	0.0140130
680.373	0.0141187
680.451	0.0141465
680.530	0.0143137
680.608	0.0143486
680.686	0.0145170
680.764	0.0146796
680.842	0.0148241
680.920	0.0148650
680.998	0.0148425
681.076	0.0147903
681.155	0.0146817
681.233	0.0146139
681.311	0.0144653
681.389	0.0143147
681.467	0.0143256
681.545	0.0139683
681.623	0.0139363
681.701	0.0139463
681.780	0.0139034
681.858	0.0138165
681.936	0.0138227
682.014	0.0138943
682.092	0.0138429
682.170	0.0141173
682.248	0.0140127
682.326	0.0141473
682.405	0.0141444
682.483	0.0141947
682.561	0.0143349
682.639	0.0143249
682.717	0.0142655
682.795	0.0141927
682.873	0.0139621
682.951	0.0141550
683.030	0.0141814
683.108	0.0141460
683.186	0.0141047
683.264	0.0141674
683.342	0.0140771
683.420	0.0140638
683.498	0.0143308
683.576	0.0143113
683.655	0.0144196
683.733	0.0144754
683.811	0.0144791
683.889	0.0145896
683.967	0.0145940
684.045	0.0146263
684.123	0.0146898
684.201	0.0146686
684.280	0.0147730
684.358	0.0148207
684.436	0.0147436
684.514	0.0146249
684.592	0.0148116
684.670	0.0148104
684.748	0.0146936
684.826	0.0147581
684.905	0.0147671
684.983	0.0147068
685.061	0.0144370
685.139	0.0144956
685.217	0.0143647
685.295	0.0143372
685.373	0.0139667
685.451	0.0139529
685.530	0.0138058
685.608	0.0135328
685.686	0.0133537
685.764	0.0132528
685.842	0.0131199
685.920	0.0129131
685.998	0.0128941
686.076	0.0129212
686.155	0.0129541
686.233	0.0132053
686.311	0.0134039
686.389	0.0135366
686.467	0.0137603
686.545	0.0140228
686.623	0.0141110
686.701	0.0144688
686.780	0.0145002
686.858	0.0148100
686.936	0.0149219
687.014	0.0151083
687.092	0.0152482
687.170	0.0153775
687.248	0.0153629
687.326	0.0153880
687.405	0.0154467
687.483	0.0155360
687.561	0.0156863
687.639	0.0154202
687.717	0.0154301
687.795	0.0152850
687.873	0.0152907
687.951	0.0149938
688.030	0.0148888
688.108	0.0146723
688.186	0.0144411
688.264	0.0140406
688.342	0.0137663
688.420	0.0136353
688.498	0.0135650
688.576	0.0132664
688.655	0.0131764
688.733	0.0130701
688.811	0.0131712
688.889	0.0131815
688.967	0.0131367
689.045	0.0132370
689.123	0.0133869
689.201	0.0133555
689.280	0.0134714
689.358	0.0134168
689.436	0.0134165
689.514	0.0136277
689.592	0.0137486
689.670	0.0140122
689.748	0.0139921
689.826	0.0141288
689.905	0.0144301
689.983	0.0146049
690.061	0.0148035
690.139	0.0150025
690.217	0.0152511
690.295	0.0152443
690.373	0.0153413
690.451	0.0154518
690.530	0.0155312
690.608	0.0154685
690.686	0.0151186
690.764	0.0149463
690.842	0.0149154
690.920	0.0146844
690.998	0.0142686
691.076	0.0140435
691.155	0.0137820
691.233	0.0137188
691.311	0.0137608
691.389	0.0136849
691.467	0.0137015
691.545	0.0138329
691.623	0.0138779
691.701	0.0137405
691.780	0.0137537
691.858	0.0138549
691.936	0.0136677
692.014	0.0137299
692.092	0.0135516
692.170	0.0134440
692.248	0.0133307
692.326	0.0131887
692.405	0.0131515
692.483	0.0131089
692.561	0.0131408
692.639	0.0131424
692.717	0.0134586
692.795	0.0136359
692.873	0.0138811
692.951	0.0143179
693.030	0.0144891
693.108	0.0146996
693.186	0.0150368
693.264	0.0152628
693.342	0.0153767
693.420	0.0155328
693.498	0.0157197
693.576	0.0158038
693.655	0.0157288
693.733	0.0155221
693.811	0.0155975
693.889	0.0156149
693.967	0.0155254
694.045	0.0154075
694.123	0.0152197
694.201	0.0151245
694.280	0.0149534
694.358	0.0148364
694.436	0.0147357
694.514	0.0144677
694.592	0.0141792
694.670	0.0141125
694.748	0.0138747
694.826	0.0136452
694.905	0.0135248
694.983	0.0135124
695.061	0.0134275
695.139	0.0132755
695.217	0.0133069
695.295	0.0132397
695.373	0.0131346
695.451	0.0131637
695.530	0.0131310
695.608	0.0132088
695.686	0.0132270
695.764	0.0130807
695.842	0.0130940
695.920	0.0132129
695.998	0.0131586
696.076	0.0129495
696.155	0.0130104
696.233	0.0132959
696.311	0.0134451
696.389	0.0135349
696.467	0.0136741
696.545	0.0138861
696.623	0.0142871
696.701	0.0145164
696.780	0.0148899
696.858	0.0152382
696.936	0.0156000
697.014	0.0157581
697.092	0.0158717
697.170	0.0160722
697.248	0.0161656
697.326	0.0161241
697.405	0.0159966
697.483	0.0157548
697.561	0.0155509
697.639	0.0154054
697.717	0.0151379
697.795	0.0148868
697.873	0.0145984
697.951	0.0143596
698.030	0.0143876
698.108	0.0142854
698.186	0.0140293
698.264	0.0141442
698.342	0.0140387
698.420	0.0140941
698.498	0.0140326
698.576	0.0140237
698.655	0.0140459
698.733	0.0139932
698.811	0.0138418
698.889	0.0137821
698.967	0.0136991
699.045	0.0135830
699.123	0.0135693
699.201	0.0132960
699.280	0.0131918
699.358	0.0132598
699.436	0.0133036
699.514	0.0133504
699.592	0.0132461
699.670	0.0135896
699.748	0.0137894
699.826	0.0139817
699.905	0.0141385
699.983	0.0141171
700.061	0.0142998
700.139	0.0143237
700.217	0.0142530
700.295	0.0143520
700.373	0.0142066
700.451	0.0141125
700.530	0.0139563
700.608	0.0140108
700.686	0.0140822
700.764	0.0139693
700.842	0.0140131
700.920	0.0141518
700.998	0.0144260
701.076	0.0145725
701.155	0.0148103
701.233	0.0151035
701.311	0.0152862
701.389	0.0153786
701.467	0.0156059
701.545	0.0156552
701.623	0.0158192
701.701	0.0158022
701.780	0.0156436
701.858	0.0153627
701.936	0.0152866
702.014	0.0148589
702.092	0.0147829
702.170	0.0143918
702.248	0.0141540
702.326	0.0139385
702.405	0.0137543
702.483	0.0136321
702.561	0.0134246
702.639	0.0133981
702.717	0.0134554
702.795	0.0134384
702.873	0.0132635
702.951	0.0132685
703.030	0.0133607
703.108	0.0133034
703.186	0.0132705
703.264	0.0132108
703.342	0.0133176
703.420	0.0133080
703.498	0.0133070
703.576	0.0132764
703.655	0.0133674
703.733	0.0135784
703.811	0.0135836
703.889	0.0138503
703.967	0.0141592
704.045	0.0141967
704.123	0.0142369
704.201	0.0142974
704.280	0.0144298
704.358	0.0144522
704.436	0.0145319
704.514	0.0147131
704.592	0.0146376
704.670	0.0148697
704.748	0.0148021
704.826	0.0149874
704.905	0.0149599
704.983	0.0149168
705.061	0.0147919
705.139	0.0148854
705.217	0.0148571
705.295	0.0147501
705.373	0.0146841
705.451	0.0145338
705.530	0.0143495
705.608	0.0144110
705.686	0.0142876
705.764	0.0142818
705.842	0.0144444
705.920	0.0144595
705.998	0.0145689
706.076	0.0146091
706.155	0.0147655
706.233	0.0148625
706.311	0.0147439
706.389	0.0148077
706.467	0.0147263
706.545	0.0148157
706.623	0.0146638
706.701	0.0145136
706.780	0.0145110
706.858	0.0143135
706.936	0.0140218
707.014	0.0139844
707.092	0.0138967
707.170	0.0139111
707.248	0.0137830
707.326	0.0137476
707.405	0.0137069
707.483	0.0138478
707.561	0.0137882
707.639	0.0138632
707.717	0.0137038
707.795	0.0139314
707.873	0.0138567
707.951	0.0140269
708.030	0.0140217
708.108	0.0140343
708.186	0.0141218
708.264	0.0141634
708.342	0.0142267
708.420	0.0142922
708.498	0.0143018
708.576	0.0144173
708.655	0.0143845
708.733	0.0144901
708.811	0.0146899
708.889	0.0146910
708.967	0.0147472
709.045	0.0147036
709.123	0.0146114
709.201	0.0147175
709.280	0.0146880
709.358	0.0146497
709.436	0.0142294
709.514	0.0140759
709.592	0.0139723
709.670	0.0138377
709.748	0.0136508
709.826	0.0135506
709.905	0.0134990
709.983	0.0134883
710.061	0.0134035
710.139	0.0134848
710.217	0.0135329
710.295	0.0135369
710.373	0.0135938
710.451	0.0133559
710.530	0.0135599
710.608	0.0135606
710.686	0.0135979
710.764	0.0135888
710.842	0.0135860
710.920	0.0137419
710.998	0.0138306
711.076	0.0138795
711.155	0.0138027
711.233	0.0140240
711.311	0.0141012
711.389	0.0140335
711.467	0.0144002
711.545	0.0144676
711.623	0.0143554
711.701	0.0145964
711.780	0.0146742
711.858	0.0146651
711.936	0.0148228
712.014	0.0150047
712.092	0.0149017
712.170	0.0151057
712.248	0.0152013
712.326	0.0153075
712.405	0.0154482
712.483	0.0155283
712.561	0.0155618
712.639	0.0153899
712.717	0.0156423
712.795	0.0155563
712.873	0.0155156
712.951	0.0152903
713.030	0.0151257
713.108	0.0149609
713.186	0.0150957
713.264	0.0146188
713.342	0.0144393
713.420	0.0143400
713.498	0.0141857
713.576	0.0139536
713.655	0.0137653
713.733	0.0137132
713.811	0.0137062
713.889	0.0136441
713.967	0.0134322
714.045	0.0132176
714.123	0.0131980
714.201	0.0131908
714.280	0.0129790
714.358	0.0130005
714.436	0.0128188
714.514	0.0130620
714.592	0.0128522
714.670	0.0129040
714.748	0.0129938
714.826	0.0130281
714.905	0.0130548
714.983	0.0132313
715.061	0.0133913
715.139	0.0134883
715.217	0.0135281
715.295	0.0138222
715.373	0.0139220
715.451	0.0140120
715.530	0.0141528
715.608	0.0141381
715.686	0.0143319
715.764	0.0144221
715.842	0.0144572
715.920	0.0145474
715.998	0.0146230
716.076	0.0146024
716.155	0.0146274
716.233	0.0146200
716.311	0.0147171
716.389	0.0146006
716.467	0.0145284
716.545	0.0145015
716.623	0.0145892
716.701	0.0144382
716.780	0.0144929
716.858	0.0145289
716.936	0.0144327
717.014	0.0145852
717.092	0.0146320
717.170	0.0146941
717.248	0.0147696
717.326	0.0148912
717.405	0.0149376
717.483	0.0149993
717.561	0.0150400
717.639	0.0149960
717.717	0.0150879
717.795	0.0149578
717.873	0.0151170
717.951	0.0149590
718.030	0.0150305
718.108	0.0149785
718.186	0.0151977
718.264	0.0150607
718.342	0.0150392
718.420	0.0150031
718.498	0.0149896
718.576	0.0149464
718.655	0.0148409
718.733	0.0145180
718.811	0.0142976
718.889	0.0141894
718.967	0.0138726
719.045	0.0135376
719.123	0.0133898
719.201	0.0133048
719.280	0.0131741
719.358	0.0130238
719.436	0.0130727
719.514	0.0131226
719.592	0.0133337
719.670	0.0135110
719.748	0.0134546
719.826	0.0138079
719.905	0.0139200
719.983	0.0140157
720.061	0.0141171
720.139	0.0139739
720.217	0.0139391
720.295	0.0140952
720.373	0.0140954
720.451	0.0140244
720.530	0.0139278
720.608	0.0137225
720.686	0.0137762
720.764	0.0138574
720.842	0.0137247
720.920	0.0137974
720.998	0.0138845
721.076	0.0140518
721.155	0.0141617
721.233	0.0142138
721.311	0.0142373
721.389	0.0141806
721.467	0.0144296
721.545	0.0145588
721.623	0.0145009
721.701	0.0145509
721.780	0.0146375
721.858	0.0146605
721.936	0.0148427
722.014	0.0148488
722.092	0.0146935
722.170	0.0147945
722.248	0.0148174
722.326	0.0148647
722.405	0.0148287
722.483	0.0147453
722.561	0.0147657
722.639	0.0146777
722.717	0.0146790
722.795	0.0147134
722.873	0.0148572
722.951	0.0147622
723.030	0.0147630
723.108	0.0148082
723.186	0.0146767
723.264	0.0145592
723.342	0.0145034
723.420	0.0145229
723.498	0.0143352
723.576	0.0142874
723.655	0.0141318
723.733	0.0141806
723.811	0.0140678
723.889	0.0139679
723.967	0.0140433
724.045	0.0140918
724.123	0.0140180
724.201	0.0139844
724.280	0.0140384
724.358	0.0141867
724.436	0.0140070
724.514	0.0139815
724.592	0.0139551
724.670	0.0140006
724.748	0.0139110
724.826	0.0138056
724.905	0.0136778
724.983	0.0136378
725.061	0.0135023
725.139	0.0134547
725.217	0.0133797
725.295	0.0133247
725.373	0.0134138
725.451	0.0133939
725.530	0.0134470
725.608	0.0136332
725.686	0.0137518
