05/20/2022	16:23:12	Ver.	4.1	UNKNOWN
Optical Delay	639.982744	Delta X		0.078125	Sweeps	1	Scan Rate	0/0
Coordinates	Axis 1	NaN	Axis 2	NaN	Axis 3	NaN	Axis 4	NaN	Axis 5	NaN	Axis 6	0.000000
TX Power	0.000000	RX Power	0.000000

639.983	0.0146091
640.061	0.0144077
640.139	0.0144722
640.217	0.0145480
640.295	0.0144134
640.373	0.0143592
640.451	0.0146552
640.530	0.0145261
640.608	0.0143373
640.686	0.0144411
640.764	0.0145740
640.842	0.0144749
640.920	0.0144210
640.998	0.0145663
641.076	0.0145593
641.155	0.0144616
641.233	0.0144651
641.311	0.0146312
641.389	0.0144966
641.467	0.0146478
641.545	0.0145818
641.623	0.0145390
641.701	0.0144888
641.780	0.0145157
641.858	0.0145468
641.936	0.0145200
642.014	0.0145080
642.092	0.0145380
642.170	0.0145221
642.248	0.0146414
642.326	0.0146301
642.405	0.0145833
642.483	0.0144946
642.561	0.0144594
642.639	0.0145911
642.717	0.0146343
642.795	0.0144752
642.873	0.0144790
642.951	0.0145151
643.030	0.0145954
643.108	0.0145406
643.186	0.0146019
643.264	0.0145033
643.342	0.0145649
643.420	0.0146704
643.498	0.0145007
643.576	0.0146696
643.655	0.0145940
643.733	0.0146056
643.811	0.0145640
643.889	0.0144962
643.967	0.0144779
644.045	0.0145277
644.123	0.0145383
644.201	0.0145450
644.280	0.0145477
644.358	0.0144858
644.436	0.0145802
644.514	0.0146053
644.592	0.0146281
644.670	0.0144800
644.748	0.0146076
644.826	0.0145446
644.905	0.0144946
644.983	0.0146049
645.061	0.0145123
645.139	0.0144732
645.217	0.0145067
645.295	0.0144094
645.373	0.0144209
645.451	0.0145817
645.530	0.0144852
645.608	0.0145722
645.686	0.0146042
645.764	0.0145567
645.842	0.0144330
645.920	0.0145659
645.998	0.0144417
646.076	0.0144305
646.155	0.0145710
646.233	0.0145798
646.311	0.0145235
646.389	0.0145667
646.467	0.0144756
646.545	0.0145175
646.623	0.0144975
646.701	0.0145347
646.780	0.0144613
646.858	0.0146258
646.936	0.0144884
647.014	0.0144785
647.092	0.0145432
647.170	0.0144776
647.248	0.0144615
647.326	0.0145751
647.405	0.0147884
647.483	0.0144872
647.561	0.0143954
647.639	0.0144505
647.717	0.0146054
647.795	0.0144718
647.873	0.0144102
647.951	0.0144202
648.030	0.0144582
648.108	0.0145657
648.186	0.0145827
648.264	0.0144580
648.342	0.0143684
648.420	0.0143643
648.498	0.0144608
648.576	0.0144604
648.655	0.0144785
648.733	0.0145222
648.811	0.0145496
648.889	0.0144913
648.967	0.0144559
649.045	0.0143810
649.123	0.0144084
649.201	0.0144527
649.280	0.0144904
649.358	0.0145815
649.436	0.0145703
649.514	0.0145399
649.592	0.0143775
649.670	0.0144028
649.748	0.0145156
649.826	0.0146274
649.905	0.0144495
649.983	0.0144433
650.061	0.0145094
650.139	0.0145328
650.217	0.0144177
650.295	0.0144029
650.373	0.0143501
650.451	0.0146046
650.530	0.0143916
650.608	0.0144845
650.686	0.0144778
650.764	0.0144934
650.842	0.0145862
650.920	0.0145678
650.998	0.0145161
651.076	0.0145250
651.155	0.0143684
651.233	0.0144058
651.311	0.0144351
651.389	0.0145115
651.467	0.0145024
651.545	0.0143815
651.623	0.0144133
651.701	0.0144943
651.780	0.0145454
651.858	0.0145692
651.936	0.0144648
652.014	0.0144220
652.092	0.0144569
652.170	0.0143478
652.248	0.0144543
652.326	0.0143760
652.405	0.0144090
652.483	0.0144057
652.561	0.0144250
652.639	0.0143886
652.717	0.0144573
652.795	0.0144270
652.873	0.0142947
652.951	0.0145513
653.030	0.0145865
653.108	0.0143283
653.186	0.0143473
653.264	0.0145517
653.342	0.0144796
653.420	0.0144630
653.498	0.0144651
653.576	0.0144865
653.655	0.0144163
653.733	0.0145050
653.811	0.0145686
653.889	0.0146838
653.967	0.0144823
654.045	0.0144952
654.123	0.0143941
654.201	0.0144403
654.280	0.0144701
654.358	0.0144287
654.436	0.0143864
654.514	0.0145797
654.592	0.0146481
654.670	0.0143468
654.748	0.0143897
654.826	0.0144637
654.905	0.0145341
654.983	0.0144586
655.061	0.0145353
655.139	0.0145409
655.217	0.0144426
655.295	0.0144050
655.373	0.0145903
655.451	0.0144841
655.530	0.0144827
655.608	0.0145067
655.686	0.0145457
655.764	0.0146016
655.842	0.0146102
655.920	0.0145694
655.998	0.0143858
656.076	0.0144035
656.155	0.0146251
656.233	0.0146317
656.311	0.0145266
656.389	0.0146413
656.467	0.0145490
656.545	0.0144810
656.623	0.0146586
656.701	0.0146624
656.780	0.0143375
656.858	0.0144702
656.936	0.0146387
657.014	0.0144744
657.092	0.0145108
657.170	0.0144833
657.248	0.0145190
657.326	0.0143429
657.405	0.0144059
657.483	0.0145240
657.561	0.0145577
657.639	0.0145846
657.717	0.0146113
657.795	0.0146086
657.873	0.0144660
657.951	0.0147082
658.030	0.0145551
658.108	0.0146008
658.186	0.0146364
658.264	0.0146094
658.342	0.0145460
658.420	0.0146015
658.498	0.0146538
658.576	0.0145547
658.655	0.0144843
658.733	0.0144308
658.811	0.0145487
658.889	0.0146767
658.967	0.0145753
659.045	0.0144394
659.123	0.0145140
659.201	0.0145333
659.280	0.0145714
659.358	0.0145811
659.436	0.0145245
659.514	0.0146169
659.592	0.0146097
659.670	0.0145222
659.748	0.0145882
659.826	0.0146106
659.905	0.0145045
659.983	0.0147083
660.061	0.0145421
660.139	0.0145606
660.217	0.0146239
660.295	0.0146120
660.373	0.0146096
660.451	0.0145380
660.530	0.0146618
660.608	0.0147345
660.686	0.0146066
660.764	0.0146288
660.842	0.0146296
660.920	0.0145378
660.998	0.0145883
661.076	0.0145176
661.155	0.0145801
661.233	0.0146806
661.311	0.0146839
661.389	0.0147366
661.467	0.0145570
661.545	0.0145419
661.623	0.0145306
661.701	0.0144941
661.780	0.0145588
661.858	0.0145637
661.936	0.0145044
662.014	0.0145496
662.092	0.0144671
662.170	0.0144517
662.248	0.0146428
662.326	0.0145950
662.405	0.0146528
662.483	0.0145491
662.561	0.0145898
662.639	0.0145985
662.717	0.0145066
662.795	0.0145678
662.873	0.0146287
662.951	0.0146110
663.030	0.0145057
663.108	0.0145704
663.186	0.0146249
663.264	0.0145454
663.342	0.0145731
663.420	0.0146722
663.498	0.0144953
663.576	0.0146104
663.655	0.0145891
663.733	0.0145460
663.811	0.0147226
663.889	0.0146967
663.967	0.0146545
664.045	0.0147240
664.123	0.0147236
664.201	0.0145496
664.280	0.0145487
664.358	0.0146587
664.436	0.0145695
664.514	0.0145822
664.592	0.0144773
664.670	0.0145383
664.748	0.0144886
664.826	0.0144660
664.905	0.0145906
664.983	0.0144899
665.061	0.0146245
665.139	0.0145231
665.217	0.0144390
665.295	0.0145648
665.373	0.0144150
665.451	0.0143291
665.530	0.0145539
665.608	0.0145334
665.686	0.0146574
665.764	0.0145990
665.842	0.0145538
665.920	0.0146873
665.998	0.0146915
666.076	0.0147065
666.155	0.0146952
666.233	0.0145278
666.311	0.0146808
666.389	0.0147784
666.467	0.0146096
666.545	0.0147130
666.623	0.0145016
666.701	0.0145493
666.780	0.0145155
666.858	0.0144328
666.936	0.0144703
667.014	0.0145025
667.092	0.0144618
667.170	0.0145148
667.248	0.0142270
667.326	0.0144231
667.405	0.0146415
667.483	0.0145856
667.561	0.0144953
667.639	0.0145747
667.717	0.0145672
667.795	0.0145019
667.873	0.0146449
667.951	0.0148141
668.030	0.0147579
668.108	0.0147967
668.186	0.0147885
668.264	0.0148231
668.342	0.0147586
668.420	0.0146890
668.498	0.0147272
668.576	0.0147029
668.655	0.0146912
668.733	0.0146929
668.811	0.0145569
668.889	0.0145182
668.967	0.0145508
669.045	0.0143898
669.123	0.0143671
669.201	0.0144829
669.280	0.0144916
669.358	0.0144343
669.436	0.0143224
669.514	0.0143021
669.592	0.0143914
669.670	0.0143785
669.748	0.0143658
669.826	0.0143864
669.905	0.0143726
669.983	0.0145126
670.061	0.0145444
670.139	0.0145664
670.217	0.0145594
670.295	0.0145091
670.373	0.0143607
670.451	0.0144197
670.530	0.0147281
670.608	0.0145341
670.686	0.0145937
670.764	0.0145402
670.842	0.0146461
670.920	0.0145486
670.998	0.0145190
671.076	0.0144221
671.155	0.0143457
671.233	0.0143623
671.311	0.0144729
671.389	0.0144685
671.467	0.0143523
671.545	0.0143955
671.623	0.0143399
671.701	0.0142726
671.780	0.0143382
671.858	0.0144568
671.936	0.0143717
672.014	0.0142593
672.092	0.0144010
672.170	0.0144278
672.248	0.0144241
672.326	0.0145131
672.405	0.0145718
672.483	0.0144644
672.561	0.0144778
672.639	0.0147195
672.717	0.0146522
672.795	0.0145901
672.873	0.0145903
672.951	0.0145046
673.030	0.0144870
673.108	0.0145930
673.186	0.0145208
673.264	0.0145763
673.342	0.0144872
673.420	0.0144328
673.498	0.0143874
673.576	0.0145158
673.655	0.0144129
673.733	0.0144019
673.811	0.0143754
673.889	0.0143266
673.967	0.0144106
674.045	0.0144002
674.123	0.0143820
674.201	0.0145230
674.280	0.0144517
674.358	0.0145726
674.436	0.0145175
674.514	0.0145861
674.592	0.0145571
674.670	0.0147395
674.748	0.0147105
674.826	0.0148753
674.905	0.0148796
674.983	0.0147243
675.061	0.0147810
675.139	0.0148742
675.217	0.0147536
675.295	0.0147223
675.373	0.0147010
675.451	0.0147525
675.530	0.0145403
675.608	0.0143697
675.686	0.0145321
675.764	0.0144923
675.842	0.0144968
675.920	0.0143105
675.998	0.0144054
676.076	0.0143264
676.155	0.0141941
676.233	0.0143408
676.311	0.0143266
676.389	0.0144397
676.467	0.0143572
676.545	0.0144948
676.623	0.0145444
676.701	0.0144623
676.780	0.0146519
676.858	0.0146367
676.936	0.0147754
677.014	0.0148797
677.092	0.0147730
677.170	0.0147996
677.248	0.0144731
677.326	0.0146519
677.405	0.0146865
677.483	0.0147232
677.561	0.0146334
677.639	0.0145174
677.717	0.0145467
677.795	0.0143837
677.873	0.0145248
677.951	0.0146641
678.030	0.0147776
678.108	0.0146838
678.186	0.0146347
678.264	0.0147323
678.342	0.0147419
678.420	0.0146518
678.498	0.0147002
678.576	0.0146932
678.655	0.0146927
678.733	0.0145525
678.811	0.0144164
678.889	0.0143273
678.967	0.0144221
679.045	0.0140822
679.123	0.0140936
679.201	0.0140758
679.280	0.0141259
679.358	0.0142065
679.436	0.0143021
679.514	0.0144266
679.592	0.0144511
679.670	0.0147208
679.748	0.0147688
679.826	0.0149105
679.905	0.0150754
679.983	0.0152586
680.061	0.0151694
680.139	0.0152615
680.217	0.0151728
680.295	0.0152162
680.373	0.0150501
680.451	0.0148921
680.530	0.0147443
680.608	0.0145856
680.686	0.0143066
680.764	0.0141414
680.842	0.0141002
680.920	0.0141140
680.998	0.0139888
681.076	0.0139637
681.155	0.0140513
681.233	0.0141870
681.311	0.0142685
681.389	0.0142081
681.467	0.0142760
681.545	0.0142825
681.623	0.0143591
681.701	0.0144218
681.780	0.0144116
681.858	0.0146214
681.936	0.0144760
682.014	0.0143913
682.092	0.0144094
682.170	0.0143162
682.248	0.0145162
682.326	0.0143499
682.405	0.0145155
682.483	0.0145581
682.561	0.0146214
682.639	0.0147260
682.717	0.0148682
682.795	0.0149947
682.873	0.0150446
682.951	0.0151407
683.030	0.0151417
683.108	0.0150186
683.186	0.0149046
683.264	0.0150789
683.342	0.0149396
683.420	0.0148702
683.498	0.0148640
683.576	0.0147913
683.655	0.0149468
683.733	0.0147925
683.811	0.0146206
683.889	0.0145157
683.967	0.0146349
684.045	0.0146705
684.123	0.0146674
684.201	0.0145783
684.280	0.0145872
684.358	0.0145945
684.436	0.0145428
684.514	0.0144550
684.592	0.0142979
684.670	0.0141657
684.748	0.0140661
684.826	0.0139465
684.905	0.0138728
684.983	0.0136964
685.061	0.0134387
685.139	0.0135505
685.217	0.0134638
685.295	0.0133885
685.373	0.0135860
685.451	0.0135497
685.530	0.0136231
685.608	0.0138028
685.686	0.0140472
685.764	0.0142572
685.842	0.0144142
685.920	0.0146725
685.998	0.0148068
686.076	0.0149313
686.155	0.0151318
686.233	0.0151634
686.311	0.0153141
686.389	0.0153390
686.467	0.0154646
686.545	0.0156734
686.623	0.0157265
686.701	0.0156942
686.780	0.0157227
686.858	0.0159370
686.936	0.0159108
687.014	0.0158033
687.092	0.0156629
687.170	0.0157492
687.248	0.0155842
687.326	0.0154420
687.405	0.0152391
687.483	0.0150673
687.561	0.0146250
687.639	0.0142511
687.717	0.0140661
687.795	0.0139359
687.873	0.0135166
687.951	0.0133744
688.030	0.0132681
688.108	0.0130813
688.186	0.0131902
688.264	0.0130822
688.342	0.0131014
688.420	0.0133745
688.498	0.0131578
688.576	0.0132648
688.655	0.0135393
688.733	0.0134450
688.811	0.0136382
688.889	0.0135912
688.967	0.0138810
689.045	0.0140183
689.123	0.0143718
689.201	0.0145800
689.280	0.0147957
689.358	0.0150838
689.436	0.0152780
689.514	0.0155038
689.592	0.0157684
689.670	0.0159895
689.748	0.0161181
689.826	0.0162608
689.905	0.0162342
689.983	0.0161752
690.061	0.0158369
690.139	0.0156548
690.217	0.0152638
690.295	0.0148683
690.373	0.0147713
690.451	0.0143005
690.530	0.0141395
690.608	0.0140481
690.686	0.0138192
690.764	0.0136457
690.842	0.0138122
690.920	0.0139108
690.998	0.0139066
691.076	0.0140899
691.155	0.0140098
691.233	0.0140163
691.311	0.0141713
691.389	0.0140971
691.467	0.0140997
691.545	0.0139944
691.623	0.0140444
691.701	0.0140057
691.780	0.0138351
691.858	0.0138370
691.936	0.0138893
692.014	0.0140062
692.092	0.0141419
692.170	0.0141901
692.248	0.0143964
692.326	0.0145502
692.405	0.0147488
692.483	0.0150137
692.561	0.0151094
692.639	0.0153579
692.717	0.0154248
692.795	0.0155442
692.873	0.0156905
692.951	0.0158393
693.030	0.0158333
693.108	0.0158590
693.186	0.0157629
693.264	0.0157566
693.342	0.0158276
693.420	0.0156857
693.498	0.0156465
693.576	0.0155083
693.655	0.0153904
693.733	0.0153140
693.811	0.0151175
693.889	0.0147868
693.967	0.0144453
694.045	0.0142770
694.123	0.0140299
694.201	0.0138842
694.280	0.0137051
694.358	0.0134910
694.436	0.0132937
694.514	0.0132537
694.592	0.0131841
694.670	0.0132092
694.748	0.0133957
694.826	0.0133891
694.905	0.0134591
694.983	0.0135680
695.061	0.0135339
695.139	0.0135806
695.217	0.0134834
695.295	0.0133938
695.373	0.0134538
695.451	0.0134415
695.530	0.0134985
695.608	0.0136894
695.686	0.0138489
695.764	0.0139526
695.842	0.0141479
695.920	0.0144853
695.998	0.0147723
696.076	0.0148813
696.155	0.0152865
696.233	0.0155202
696.311	0.0156529
696.389	0.0157189
696.467	0.0159879
696.545	0.0160614
696.623	0.0161454
696.701	0.0159298
696.780	0.0159373
696.858	0.0160240
696.936	0.0157082
697.014	0.0156709
697.092	0.0155735
697.170	0.0155811
697.248	0.0152419
697.326	0.0150958
697.405	0.0151058
697.483	0.0150040
697.561	0.0148725
697.639	0.0148286
697.717	0.0146895
697.795	0.0146298
697.873	0.0144788
697.951	0.0144202
698.030	0.0145396
698.108	0.0144180
698.186	0.0142120
698.264	0.0141247
698.342	0.0138775
698.420	0.0137916
698.498	0.0136391
698.576	0.0135571
698.655	0.0132005
698.733	0.0132033
698.811	0.0131903
698.889	0.0132260
698.967	0.0131580
699.045	0.0134225
699.123	0.0133782
699.201	0.0136086
699.280	0.0137682
699.358	0.0139212
699.436	0.0140362
699.514	0.0141792
699.592	0.0144155
699.670	0.0144196
699.748	0.0143997
699.826	0.0148467
699.905	0.0148103
699.983	0.0148064
700.061	0.0148161
700.139	0.0150174
700.217	0.0150048
700.295	0.0148788
700.373	0.0150138
700.451	0.0150992
700.530	0.0152096
700.608	0.0152751
700.686	0.0153172
700.764	0.0154093
700.842	0.0154544
700.920	0.0156482
700.998	0.0157356
701.076	0.0156835
701.155	0.0158603
701.233	0.0156077
701.311	0.0156142
701.389	0.0156356
701.467	0.0154137
701.545	0.0153870
701.623	0.0150066
701.701	0.0147716
701.780	0.0146648
701.858	0.0144728
701.936	0.0142632
702.014	0.0140974
702.092	0.0138625
702.170	0.0136954
702.248	0.0135216
702.326	0.0134719
702.405	0.0136324
702.483	0.0136078
702.561	0.0135941
702.639	0.0136272
702.717	0.0136995
702.795	0.0136351
702.873	0.0136095
702.951	0.0137861
703.030	0.0138003
703.108	0.0138136
703.186	0.0138485
703.264	0.0137239
703.342	0.0139085
703.420	0.0138317
703.498	0.0138477
703.576	0.0138390
703.655	0.0140230
703.733	0.0141401
703.811	0.0143554
703.889	0.0145131
703.967	0.0145829
704.045	0.0148675
704.123	0.0150396
704.201	0.0153600
704.280	0.0155427
704.358	0.0155030
704.436	0.0155404
704.514	0.0155622
704.592	0.0154488
704.670	0.0153510
704.748	0.0154078
704.826	0.0151200
704.905	0.0150729
704.983	0.0148102
705.061	0.0146729
705.139	0.0147440
705.217	0.0145295
705.295	0.0143488
705.373	0.0145593
705.451	0.0146038
705.530	0.0145743
705.608	0.0148258
705.686	0.0149593
705.764	0.0148993
705.842	0.0150155
705.920	0.0150806
705.998	0.0150730
706.076	0.0150356
706.155	0.0148672
706.233	0.0148411
706.311	0.0148717
706.389	0.0146449
706.467	0.0145264
706.545	0.0145123
706.623	0.0141847
706.701	0.0140045
706.780	0.0140643
706.858	0.0139994
706.936	0.0139109
707.014	0.0136801
707.092	0.0136050
707.170	0.0136647
707.248	0.0135495
707.326	0.0133492
707.405	0.0132238
707.483	0.0131919
707.561	0.0130623
707.639	0.0129480
707.717	0.0131660
707.795	0.0132486
707.873	0.0134676
707.951	0.0135992
708.030	0.0139324
708.108	0.0142906
708.186	0.0147807
708.264	0.0150629
708.342	0.0154967
708.420	0.0158945
708.498	0.0158573
708.576	0.0160002
708.655	0.0159146
708.733	0.0158952
708.811	0.0157331
708.889	0.0153071
708.967	0.0152174
709.045	0.0148855
709.123	0.0144939
709.201	0.0142279
709.280	0.0142007
709.358	0.0140373
709.436	0.0139314
709.514	0.0139171
709.592	0.0140307
709.670	0.0141130
709.748	0.0142608
709.826	0.0142556
709.905	0.0145261
709.983	0.0146677
710.061	0.0145309
710.139	0.0144747
710.217	0.0145715
710.295	0.0144535
710.373	0.0143671
710.451	0.0143122
710.530	0.0141802
710.608	0.0140639
710.686	0.0141373
710.764	0.0141994
710.842	0.0142286
710.920	0.0144330
710.998	0.0144828
711.076	0.0145910
711.155	0.0148183
711.233	0.0148064
711.311	0.0148700
711.389	0.0150065
711.467	0.0150439
711.545	0.0150683
711.623	0.0150050
711.701	0.0151875
711.780	0.0151912
711.858	0.0152760
711.936	0.0153674
712.014	0.0154132
712.092	0.0156486
712.170	0.0156937
712.248	0.0157023
712.326	0.0157632
712.405	0.0158636
712.483	0.0158324
712.561	0.0158179
712.639	0.0157249
712.717	0.0153172
712.795	0.0152462
712.873	0.0152213
712.951	0.0148033
713.030	0.0145291
713.108	0.0143432
713.186	0.0142394
713.264	0.0139397
713.342	0.0137473
713.420	0.0135036
713.498	0.0133736
713.576	0.0135070
713.655	0.0133575
713.733	0.0133357
713.811	0.0133538
713.889	0.0134709
713.967	0.0135676
714.045	0.0136793
714.123	0.0136365
714.201	0.0136941
714.280	0.0138656
714.358	0.0138847
714.436	0.0139520
714.514	0.0139424
714.592	0.0138400
714.670	0.0138414
714.748	0.0138593
714.826	0.0139418
714.905	0.0138319
714.983	0.0138341
715.061	0.0141064
715.139	0.0141951
715.217	0.0142801
715.295	0.0144150
715.373	0.0145126
715.451	0.0145541
715.530	0.0147710
715.608	0.0149766
715.686	0.0149437
715.764	0.0150332
715.842	0.0150201
715.920	0.0150909
715.998	0.0150151
716.076	0.0151749
716.155	0.0152141
716.233	0.0151219
716.311	0.0153741
716.389	0.0153983
716.467	0.0153109
716.545	0.0154511
716.623	0.0154098
716.701	0.0153945
716.780	0.0156429
716.858	0.0154298
716.936	0.0152538
717.014	0.0153308
717.092	0.0152428
717.170	0.0149870
717.248	0.0149654
717.326	0.0151371
717.405	0.0150134
717.483	0.0150354
717.561	0.0151637
717.639	0.0151985
717.717	0.0150261
717.795	0.0151951
717.873	0.0152208
717.951	0.0152504
718.030	0.0151883
718.108	0.0149415
718.186	0.0148009
718.264	0.0147419
718.342	0.0143841
718.420	0.0141650
718.498	0.0140897
718.576	0.0138865
718.655	0.0135968
718.733	0.0134925
718.811	0.0135001
718.889	0.0134733
718.967	0.0133248
719.045	0.0133628
719.123	0.0134502
719.201	0.0134657
719.280	0.0136565
719.358	0.0136983
719.436	0.0139771
719.514	0.0139324
719.592	0.0141320
719.670	0.0141005
719.748	0.0143116
719.826	0.0144914
719.905	0.0146368
719.983	0.0146816
720.061	0.0147288
720.139	0.0147176
720.217	0.0147296
720.295	0.0147167
720.373	0.0144592
720.451	0.0144362
720.530	0.0142994
720.608	0.0142284
720.686	0.0142009
720.764	0.0141698
720.842	0.0142067
720.920	0.0141642
720.998	0.0145869
721.076	0.0146799
721.155	0.0146597
721.233	0.0147937
721.311	0.0150451
721.389	0.0151885
721.467	0.0152629
721.545	0.0151644
721.623	0.0151981
721.701	0.0151232
721.780	0.0152050
721.858	0.0150885
721.936	0.0149603
722.014	0.0149161
722.092	0.0147764
722.170	0.0148473
722.248	0.0147822
722.326	0.0147183
722.405	0.0146563
722.483	0.0148077
722.561	0.0147865
722.639	0.0147016
722.717	0.0147878
722.795	0.0147611
722.873	0.0146262
722.951	0.0146156
723.030	0.0146205
723.108	0.0145419
723.186	0.0142953
723.264	0.0142702
723.342	0.0143729
723.420	0.0143929
723.498	0.0143060
723.576	0.0142973
723.655	0.0144298
723.733	0.0144977
723.811	0.0145773
723.889	0.0146103
723.967	0.0144569
724.045	0.0146307
724.123	0.0145877
724.201	0.0145524
724.280	0.0143751
724.358	0.0142940
724.436	0.0140961
724.514	0.0139030
724.592	0.0137787
724.670	0.0137293
724.748	0.0137031
724.826	0.0137564
724.905	0.0136633
724.983	0.0137334
725.061	0.0137153
725.139	0.0138793
725.217	0.0139781
725.295	0.0140544
725.373	0.0140524
725.451	0.0141536
725.530	0.0143560
725.608	0.0143111
725.686	0.0143505
