05/20/2022	16:24:22	Ver.	4.1	UNKNOWN
Optical Delay	639.982744	Delta X		0.078125	Sweeps	1	Scan Rate	0/0
Coordinates	Axis 1	NaN	Axis 2	NaN	Axis 3	NaN	Axis 4	NaN	Axis 5	NaN	Axis 6	0.000000
TX Power	0.000000	RX Power	0.000000

639.983	0.0146134
640.061	0.0146008
640.139	0.0146696
640.217	0.0144936
640.295	0.0146349
640.373	0.0145694
640.451	0.0147352
640.530	0.0147125
640.608	0.0145930
640.686	0.0145692
640.764	0.0145847
640.842	0.0146297
640.920	0.0145609
640.998	0.0144885
641.076	0.0145974
641.155	0.0146861
641.233	0.0146455
641.311	0.0145673
641.389	0.0147296
641.467	0.0145547
641.545	0.0145049
641.623	0.0146475
641.701	0.0146583
641.780	0.0146220
641.858	0.0145351
641.936	0.0146591
642.014	0.0146730
642.092	0.0146049
642.170	0.0145396
642.248	0.0146011
642.326	0.0145089
642.405	0.0145792
642.483	0.0145854
642.561	0.0146149
642.639	0.0146600
642.717	0.0146998
642.795	0.0145018
642.873	0.0146199
642.951	0.0146284
643.030	0.0144371
643.108	0.0145593
643.186	0.0147097
643.264	0.0146334
643.342	0.0146309
643.420	0.0145573
643.498	0.0146922
643.576	0.0146384
643.655	0.0145911
643.733	0.0147032
643.811	0.0147044
643.889	0.0145827
643.967	0.0147180
644.045	0.0145413
644.123	0.0146956
644.201	0.0146499
644.280	0.0145233
644.358	0.0146326
644.436	0.0146091
644.514	0.0146558
644.592	0.0147069
644.670	0.0146799
644.748	0.0145732
644.826	0.0146407
644.905	0.0144912
644.983	0.0145058
645.061	0.0147263
645.139	0.0145695
645.217	0.0147014
645.295	0.0147346
645.373	0.0146655
645.451	0.0146808
645.530	0.0147188
645.608	0.0144674
645.686	0.0146352
645.764	0.0147168
645.842	0.0147446
645.920	0.0147472
645.998	0.0147564
646.076	0.0146763
646.155	0.0146866
646.233	0.0146983
646.311	0.0146693
646.389	0.0147888
646.467	0.0147077
646.545	0.0145789
646.623	0.0148291
646.701	0.0148779
646.780	0.0146951
646.858	0.0145242
646.936	0.0146700
647.014	0.0146314
647.092	0.0146203
647.170	0.0146139
647.248	0.0146419
647.326	0.0145493
647.405	0.0147604
647.483	0.0147692
647.561	0.0147167
647.639	0.0145567
647.717	0.0146203
647.795	0.0145939
647.873	0.0146267
647.951	0.0147388
648.030	0.0146344
648.108	0.0147112
648.186	0.0147231
648.264	0.0147208
648.342	0.0146899
648.420	0.0148272
648.498	0.0148334
648.576	0.0146896
648.655	0.0147562
648.733	0.0147534
648.811	0.0146120
648.889	0.0146830
648.967	0.0148307
649.045	0.0147900
649.123	0.0147735
649.201	0.0147370
649.280	0.0147905
649.358	0.0148140
649.436	0.0147894
649.514	0.0146735
649.592	0.0148013
649.670	0.0149341
649.748	0.0148124
649.826	0.0147198
649.905	0.0149527
649.983	0.0148966
650.061	0.0148310
650.139	0.0148887
650.217	0.0147709
650.295	0.0148711
650.373	0.0149120
650.451	0.0148057
650.530	0.0149094
650.608	0.0148006
650.686	0.0147787
650.764	0.0147776
650.842	0.0147612
650.920	0.0147470
650.998	0.0147476
651.076	0.0148696
651.155	0.0147794
651.233	0.0147888
651.311	0.0147632
651.389	0.0147542
651.467	0.0147176
651.545	0.0147080
651.623	0.0149070
651.701	0.0147855
651.780	0.0146877
651.858	0.0147721
651.936	0.0148095
652.014	0.0147312
652.092	0.0147454
652.170	0.0146646
652.248	0.0146863
652.326	0.0148435
652.405	0.0147455
652.483	0.0146751
652.561	0.0147583
652.639	0.0148151
652.717	0.0148183
652.795	0.0147481
652.873	0.0147221
652.951	0.0146843
653.030	0.0146906
653.108	0.0147403
653.186	0.0146379
653.264	0.0147260
653.342	0.0146285
653.420	0.0146219
653.498	0.0146823
653.576	0.0146567
653.655	0.0147424
653.733	0.0147832
653.811	0.0146194
653.889	0.0146193
653.967	0.0146365
654.045	0.0147393
654.123	0.0146381
654.201	0.0145951
654.280	0.0147191
654.358	0.0145245
654.436	0.0146713
654.514	0.0145964
654.592	0.0146511
654.670	0.0147636
654.748	0.0148563
654.826	0.0147884
654.905	0.0146975
654.983	0.0148600
655.061	0.0147172
655.139	0.0147608
655.217	0.0148071
655.295	0.0147926
655.373	0.0147919
655.451	0.0145993
655.530	0.0148520
655.608	0.0148563
655.686	0.0147317
655.764	0.0147665
655.842	0.0146793
655.920	0.0145476
655.998	0.0145529
656.076	0.0146666
656.155	0.0147342
656.233	0.0147868
656.311	0.0146304
656.389	0.0147324
656.467	0.0145727
656.545	0.0146690
656.623	0.0147395
656.701	0.0145571
656.780	0.0146491
656.858	0.0146998
656.936	0.0146500
657.014	0.0146527
657.092	0.0147222
657.170	0.0147191
657.248	0.0146461
657.326	0.0145537
657.405	0.0146314
657.483	0.0146762
657.561	0.0146305
657.639	0.0145171
657.717	0.0145203
657.795	0.0146557
657.873	0.0145840
657.951	0.0145561
658.030	0.0147301
658.108	0.0146571
658.186	0.0147394
658.264	0.0145494
658.342	0.0146326
658.420	0.0144826
658.498	0.0146394
658.576	0.0144408
658.655	0.0144877
658.733	0.0144702
658.811	0.0144801
658.889	0.0145277
658.967	0.0144813
659.045	0.0144413
659.123	0.0144881
659.201	0.0144910
659.280	0.0145186
659.358	0.0144768
659.436	0.0146935
659.514	0.0144622
659.592	0.0146922
659.670	0.0145332
659.748	0.0146516
659.826	0.0145927
659.905	0.0146624
659.983	0.0146579
660.061	0.0145778
660.139	0.0145540
660.217	0.0145010
660.295	0.0145841
660.373	0.0145383
660.451	0.0146085
660.530	0.0144898
660.608	0.0145416
660.686	0.0146424
660.764	0.0147021
660.842	0.0146362
660.920	0.0146464
660.998	0.0147736
661.076	0.0147375
661.155	0.0146853
661.233	0.0146872
661.311	0.0147018
661.389	0.0146956
661.467	0.0146812
661.545	0.0145531
661.623	0.0146155
661.701	0.0147672
661.780	0.0147198
661.858	0.0146490
661.936	0.0146468
662.014	0.0146394
662.092	0.0146503
662.170	0.0146300
662.248	0.0146078
662.326	0.0146868
662.405	0.0145284
662.483	0.0147952
662.561	0.0145401
662.639	0.0146804
662.717	0.0147031
662.795	0.0147120
662.873	0.0147050
662.951	0.0148361
663.030	0.0148244
663.108	0.0146756
663.186	0.0148905
663.264	0.0149271
663.342	0.0148116
663.420	0.0149725
663.498	0.0147337
663.576	0.0148476
663.655	0.0147274
663.733	0.0147044
663.811	0.0147305
663.889	0.0145929
663.967	0.0147225
664.045	0.0146313
664.123	0.0146952
664.201	0.0146565
664.280	0.0146625
664.358	0.0146320
664.436	0.0147240
664.514	0.0146355
664.592	0.0146732
664.670	0.0147173
664.748	0.0146271
664.826	0.0147159
664.905	0.0148273
664.983	0.0149733
665.061	0.0148590
665.139	0.0148705
665.217	0.0148579
665.295	0.0147803
665.373	0.0149597
665.451	0.0150347
665.530	0.0148147
665.608	0.0149393
665.686	0.0147557
665.764	0.0149026
665.842	0.0146786
665.920	0.0146328
665.998	0.0146915
666.076	0.0147742
666.155	0.0146791
666.233	0.0146268
666.311	0.0145836
666.389	0.0145883
666.467	0.0145660
666.545	0.0146187
666.623	0.0146447
666.701	0.0145124
666.780	0.0146825
666.858	0.0146389
666.936	0.0147070
667.014	0.0146334
667.092	0.0147311
667.170	0.0148776
667.248	0.0148343
667.326	0.0148878
667.405	0.0147888
667.483	0.0147440
667.561	0.0146506
667.639	0.0148429
667.717	0.0147430
667.795	0.0148353
667.873	0.0146572
667.951	0.0148572
668.030	0.0148699
668.108	0.0147131
668.186	0.0148061
668.264	0.0147553
668.342	0.0146207
668.420	0.0146025
668.498	0.0147058
668.576	0.0146368
668.655	0.0145580
668.733	0.0147421
668.811	0.0145247
668.889	0.0145270
668.967	0.0145708
669.045	0.0144288
669.123	0.0144582
669.201	0.0146912
669.280	0.0146420
669.358	0.0146416
669.436	0.0147290
669.514	0.0147318
669.592	0.0147357
669.670	0.0146871
669.748	0.0149032
669.826	0.0147732
669.905	0.0148354
669.983	0.0147682
670.061	0.0147476
670.139	0.0148416
670.217	0.0148567
670.295	0.0146630
670.373	0.0145784
670.451	0.0147492
670.530	0.0147642
670.608	0.0146709
670.686	0.0145164
670.764	0.0146906
670.842	0.0146996
670.920	0.0145625
670.998	0.0146105
671.076	0.0145137
671.155	0.0146279
671.233	0.0145547
671.311	0.0144830
671.389	0.0146994
671.467	0.0146266
671.545	0.0145982
671.623	0.0145589
671.701	0.0145863
671.780	0.0146802
671.858	0.0147571
671.936	0.0147732
672.014	0.0147682
672.092	0.0147595
672.170	0.0146709
672.248	0.0148002
672.326	0.0148531
672.405	0.0149555
672.483	0.0147214
672.561	0.0147515
672.639	0.0147459
672.717	0.0145978
672.795	0.0147395
672.873	0.0146522
672.951	0.0146798
673.030	0.0145591
673.108	0.0144838
673.186	0.0145967
673.264	0.0143890
673.342	0.0145126
673.420	0.0144753
673.498	0.0145846
673.576	0.0147506
673.655	0.0146126
673.733	0.0146581
673.811	0.0146091
673.889	0.0147234
673.967	0.0148497
674.045	0.0147392
674.123	0.0148931
674.201	0.0148214
674.280	0.0147419
674.358	0.0149093
674.436	0.0147650
674.514	0.0147596
674.592	0.0147513
674.670	0.0147955
674.748	0.0147234
674.826	0.0148037
674.905	0.0147028
674.983	0.0146851
675.061	0.0148199
675.139	0.0146381
675.217	0.0145180
675.295	0.0146292
675.373	0.0145815
675.451	0.0146925
675.530	0.0145911
675.608	0.0146479
675.686	0.0145930
675.764	0.0145627
675.842	0.0146761
675.920	0.0148242
675.998	0.0147579
676.076	0.0145591
676.155	0.0147391
676.233	0.0147163
676.311	0.0148022
676.389	0.0147414
676.467	0.0147364
676.545	0.0146725
676.623	0.0149376
676.701	0.0147784
676.780	0.0146552
676.858	0.0147800
676.936	0.0146770
677.014	0.0146635
677.092	0.0146877
677.170	0.0147395
677.248	0.0145580
677.326	0.0145955
677.405	0.0146891
677.483	0.0147553
677.561	0.0147492
677.639	0.0147946
677.717	0.0148492
677.795	0.0150177
677.873	0.0147629
677.951	0.0148810
678.030	0.0148978
678.108	0.0147771
678.186	0.0148550
678.264	0.0147976
678.342	0.0147300
678.420	0.0146053
678.498	0.0146358
678.576	0.0145970
678.655	0.0143444
678.733	0.0143399
678.811	0.0142735
678.889	0.0143396
678.967	0.0143263
679.045	0.0143092
679.123	0.0144689
679.201	0.0145580
679.280	0.0145297
679.358	0.0149127
679.436	0.0150807
679.514	0.0150040
679.592	0.0152157
679.670	0.0152740
679.748	0.0152314
679.826	0.0153163
679.905	0.0153789
679.983	0.0152718
680.061	0.0152631
680.139	0.0149892
680.217	0.0148746
680.295	0.0147813
680.373	0.0146815
680.451	0.0144242
680.530	0.0144492
680.608	0.0141988
680.686	0.0141380
680.764	0.0141322
680.842	0.0142923
680.920	0.0141949
680.998	0.0142822
681.076	0.0143333
681.155	0.0144166
681.233	0.0144285
681.311	0.0145224
681.389	0.0146568
681.467	0.0147688
681.545	0.0148101
681.623	0.0148271
681.701	0.0147911
681.780	0.0147657
681.858	0.0146802
681.936	0.0148759
682.014	0.0148949
682.092	0.0148550
682.170	0.0150101
682.248	0.0148769
682.326	0.0150559
682.405	0.0150845
682.483	0.0150784
682.561	0.0151493
682.639	0.0152808
682.717	0.0151761
682.795	0.0152457
682.873	0.0150745
682.951	0.0150315
683.030	0.0148672
683.108	0.0146107
683.186	0.0146440
683.264	0.0145431
683.342	0.0144944
683.420	0.0143111
683.498	0.0142577
683.576	0.0142929
683.655	0.0143674
683.733	0.0144002
683.811	0.0146026
683.889	0.0147298
683.967	0.0148306
684.045	0.0148811
684.123	0.0150873
684.201	0.0149506
684.280	0.0149456
684.358	0.0147807
684.436	0.0148003
684.514	0.0145963
684.592	0.0144771
684.670	0.0142249
684.748	0.0141145
684.826	0.0139693
684.905	0.0138024
684.983	0.0135216
685.061	0.0135963
685.139	0.0138650
685.217	0.0136243
685.295	0.0139516
685.373	0.0140942
685.451	0.0140897
685.530	0.0143255
685.608	0.0145078
685.686	0.0146687
685.764	0.0149236
685.842	0.0149025
685.920	0.0150850
685.998	0.0155707
686.076	0.0154141
686.155	0.0155309
686.233	0.0155408
686.311	0.0156944
686.389	0.0157516
686.467	0.0157285
686.545	0.0155646
686.623	0.0157674
686.701	0.0158644
686.780	0.0156583
686.858	0.0157288
686.936	0.0155113
687.014	0.0155034
687.092	0.0153476
687.170	0.0152288
687.248	0.0151717
687.326	0.0150146
687.405	0.0149863
687.483	0.0148206
687.561	0.0146746
687.639	0.0144962
687.717	0.0143955
687.795	0.0142429
687.873	0.0141013
687.951	0.0139074
688.030	0.0136444
688.108	0.0135289
688.186	0.0132835
688.264	0.0130719
688.342	0.0130791
688.420	0.0129158
688.498	0.0127745
688.576	0.0127751
688.655	0.0128600
688.733	0.0130013
688.811	0.0132425
688.889	0.0134931
688.967	0.0138301
689.045	0.0139930
689.123	0.0145614
689.201	0.0148803
689.280	0.0152549
689.358	0.0155706
689.436	0.0159345
689.514	0.0163638
689.592	0.0164240
689.670	0.0166128
689.748	0.0168480
689.826	0.0167885
689.905	0.0166916
689.983	0.0166651
690.061	0.0166654
690.139	0.0164531
690.217	0.0160758
690.295	0.0157339
690.373	0.0157495
690.451	0.0155800
690.530	0.0150496
690.608	0.0149776
690.686	0.0147066
690.764	0.0144986
690.842	0.0141023
690.920	0.0141075
690.998	0.0137974
691.076	0.0134591
691.155	0.0132713
691.233	0.0131552
691.311	0.0131865
691.389	0.0131980
691.467	0.0131449
691.545	0.0131484
691.623	0.0134252
691.701	0.0135283
691.780	0.0135455
691.858	0.0137597
691.936	0.0140723
692.014	0.0142502
692.092	0.0145214
692.170	0.0147139
692.248	0.0148788
692.326	0.0150838
692.405	0.0150842
692.483	0.0151917
692.561	0.0152096
692.639	0.0152005
692.717	0.0151738
692.795	0.0151231
692.873	0.0150797
692.951	0.0149187
693.030	0.0148270
693.108	0.0147374
693.186	0.0149468
693.264	0.0149046
693.342	0.0147964
693.420	0.0150683
693.498	0.0151134
693.576	0.0151994
693.655	0.0153335
693.733	0.0153513
693.811	0.0155949
693.889	0.0157269
693.967	0.0156095
694.045	0.0155470
694.123	0.0153304
694.201	0.0152328
694.280	0.0148158
694.358	0.0146034
694.436	0.0143131
694.514	0.0141440
694.592	0.0138661
694.670	0.0135802
694.748	0.0133994
694.826	0.0134020
694.905	0.0132108
694.983	0.0130546
695.061	0.0131696
695.139	0.0131626
695.217	0.0130661
695.295	0.0131686
695.373	0.0133943
695.451	0.0133614
695.530	0.0134686
695.608	0.0135500
695.686	0.0135974
695.764	0.0138447
695.842	0.0140813
695.920	0.0143353
695.998	0.0145880
696.076	0.0146236
696.155	0.0151261
696.233	0.0152923
696.311	0.0154137
696.389	0.0155328
696.467	0.0157615
696.545	0.0159400
696.623	0.0160256
696.701	0.0160224
696.780	0.0161369
696.858	0.0160423
696.936	0.0160275
697.014	0.0162666
697.092	0.0160493
697.170	0.0159368
697.248	0.0159345
697.326	0.0157824
697.405	0.0157124
697.483	0.0156602
697.561	0.0156189
697.639	0.0157593
697.717	0.0155988
697.795	0.0155315
697.873	0.0153117
697.951	0.0153093
698.030	0.0151085
698.108	0.0149923
698.186	0.0146765
698.264	0.0143916
698.342	0.0141513
698.420	0.0138783
698.498	0.0134478
698.576	0.0134396
698.655	0.0132854
698.733	0.0131582
698.811	0.0131030
698.889	0.0131960
698.967	0.0132914
699.045	0.0133798
699.123	0.0134972
699.201	0.0134928
699.280	0.0136849
699.358	0.0136098
699.436	0.0136395
699.514	0.0136481
699.592	0.0135516
699.670	0.0134818
699.748	0.0134084
699.826	0.0135668
699.905	0.0133872
699.983	0.0136603
700.061	0.0138103
700.139	0.0139947
700.217	0.0144259
700.295	0.0150294
700.373	0.0154086
700.451	0.0159060
700.530	0.0161428
700.608	0.0166062
700.686	0.0168225
700.764	0.0169721
700.842	0.0172217
700.920	0.0171095
700.998	0.0171445
701.076	0.0169091
701.155	0.0168047
701.233	0.0164140
701.311	0.0159778
701.389	0.0158517
701.467	0.0155249
701.545	0.0153080
701.623	0.0150701
701.701	0.0148842
701.780	0.0148859
701.858	0.0146660
701.936	0.0146338
702.014	0.0144539
702.092	0.0143902
702.170	0.0140995
702.248	0.0142448
702.326	0.0141345
702.405	0.0141234
702.483	0.0139802
702.561	0.0139645
702.639	0.0138502
702.717	0.0140336
702.795	0.0141239
702.873	0.0139774
702.951	0.0142084
703.030	0.0141781
703.108	0.0141519
703.186	0.0140775
703.264	0.0140365
703.342	0.0139449
703.420	0.0140936
703.498	0.0140338
703.576	0.0138539
703.655	0.0138158
703.733	0.0139140
703.811	0.0139487
703.889	0.0139917
703.967	0.0142872
704.045	0.0143499
704.123	0.0144988
704.201	0.0147913
704.280	0.0150091
704.358	0.0151115
704.436	0.0152006
704.514	0.0150706
704.592	0.0153924
704.670	0.0154005
704.748	0.0152568
704.826	0.0153680
704.905	0.0151253
704.983	0.0152176
705.061	0.0151348
705.139	0.0150444
705.217	0.0151246
705.295	0.0150440
705.373	0.0149537
705.451	0.0150871
705.530	0.0152246
705.608	0.0151859
705.686	0.0153011
705.764	0.0154446
705.842	0.0155669
705.920	0.0157729
705.998	0.0158434
706.076	0.0157269
706.155	0.0157140
706.233	0.0158494
706.311	0.0157818
706.389	0.0155630
706.467	0.0152616
706.545	0.0150723
706.623	0.0148389
706.701	0.0147015
706.780	0.0146664
706.858	0.0145657
706.936	0.0143815
707.014	0.0144472
707.092	0.0143994
707.170	0.0143262
707.248	0.0142509
707.326	0.0142052
707.405	0.0141640
707.483	0.0139172
707.561	0.0137408
707.639	0.0137697
707.717	0.0135885
707.795	0.0134660
707.873	0.0133799
707.951	0.0132961
708.030	0.0134409
708.108	0.0133530
708.186	0.0133376
708.264	0.0133990
708.342	0.0135678
708.420	0.0137831
708.498	0.0139014
708.576	0.0141972
708.655	0.0143978
708.733	0.0146856
708.811	0.0148316
708.889	0.0150561
708.967	0.0152473
709.045	0.0155938
709.123	0.0156793
709.201	0.0157777
709.280	0.0156498
709.358	0.0156747
709.436	0.0157370
709.514	0.0156786
709.592	0.0155784
709.670	0.0155304
709.748	0.0154556
709.826	0.0155373
709.905	0.0153857
709.983	0.0152834
710.061	0.0152759
710.139	0.0153062
710.217	0.0154190
710.295	0.0154128
710.373	0.0153835
710.451	0.0155885
710.530	0.0157387
710.608	0.0156254
710.686	0.0157144
710.764	0.0155045
710.842	0.0151718
710.920	0.0151606
710.998	0.0149480
711.076	0.0147578
711.155	0.0144140
711.233	0.0140826
711.311	0.0138535
711.389	0.0135880
711.467	0.0134787
711.545	0.0132351
711.623	0.0132159
711.701	0.0132915
711.780	0.0134152
711.858	0.0135081
711.936	0.0137103
712.014	0.0137549
712.092	0.0139309
712.170	0.0141950
712.248	0.0143966
712.326	0.0145222
712.405	0.0146706
712.483	0.0150397
712.561	0.0150246
712.639	0.0151208
712.717	0.0152518
712.795	0.0152239
712.873	0.0151998
712.951	0.0152092
713.030	0.0151314
713.108	0.0149917
713.186	0.0148601
713.264	0.0148008
713.342	0.0146020
713.420	0.0144072
713.498	0.0145238
713.576	0.0144489
713.655	0.0142739
713.733	0.0141785
713.811	0.0144246
713.889	0.0144903
713.967	0.0144398
714.045	0.0145251
714.123	0.0148454
714.201	0.0147558
714.280	0.0149486
714.358	0.0148570
714.436	0.0150603
714.514	0.0151715
714.592	0.0152309
714.670	0.0151434
714.748	0.0150614
714.826	0.0150052
714.905	0.0148460
714.983	0.0148009
715.061	0.0144493
715.139	0.0141737
715.217	0.0141985
715.295	0.0138328
715.373	0.0137981
715.451	0.0137567
715.530	0.0136447
715.608	0.0136824
715.686	0.0138191
715.764	0.0137534
715.842	0.0139820
715.920	0.0140177
715.998	0.0141998
716.076	0.0142627
716.155	0.0142799
716.233	0.0146866
716.311	0.0146943
716.389	0.0147366
716.467	0.0149648
716.545	0.0151378
716.623	0.0152274
716.701	0.0153088
716.780	0.0153401
716.858	0.0154826
716.936	0.0154416
717.014	0.0154616
717.092	0.0154938
717.170	0.0154706
717.248	0.0153196
717.326	0.0153488
717.405	0.0154946
717.483	0.0154164
717.561	0.0153726
717.639	0.0153099
717.717	0.0152460
717.795	0.0151182
717.873	0.0152705
717.951	0.0151782
718.030	0.0150840
718.108	0.0150965
718.186	0.0149932
718.264	0.0147094
718.342	0.0148737
718.420	0.0148007
718.498	0.0147189
718.576	0.0146603
718.655	0.0147289
718.733	0.0145610
718.811	0.0143859
718.889	0.0143401
718.967	0.0141399
719.045	0.0139255
719.123	0.0138394
719.201	0.0137804
719.280	0.0136795
719.358	0.0136423
719.436	0.0136116
719.514	0.0135574
719.592	0.0135392
719.670	0.0136047
719.748	0.0136835
719.826	0.0137660
719.905	0.0138272
719.983	0.0142258
720.061	0.0140931
720.139	0.0141631
720.217	0.0142513
720.295	0.0143412
720.373	0.0144070
720.451	0.0144035
720.530	0.0143455
720.608	0.0145318
720.686	0.0145518
720.764	0.0145887
720.842	0.0146888
720.920	0.0147813
720.998	0.0146684
721.076	0.0148638
721.155	0.0148917
721.233	0.0149907
721.311	0.0150535
721.389	0.0152398
721.467	0.0152367
721.545	0.0151435
721.623	0.0152863
721.701	0.0153786
721.780	0.0154352
721.858	0.0153349
721.936	0.0151488
722.014	0.0151861
722.092	0.0154095
722.170	0.0153123
722.248	0.0153876
722.326	0.0152543
722.405	0.0150839
722.483	0.0150971
722.561	0.0149488
722.639	0.0149638
722.717	0.0149004
722.795	0.0149581
722.873	0.0148714
722.951	0.0147678
723.030	0.0148150
723.108	0.0148189
723.186	0.0148056
723.264	0.0148450
723.342	0.0148416
723.420	0.0146171
723.498	0.0148599
723.576	0.0147073
723.655	0.0147240
723.733	0.0146501
723.811	0.0147050
723.889	0.0147088
723.967	0.0148138
724.045	0.0147926
724.123	0.0146886
724.201	0.0147467
724.280	0.0148746
724.358	0.0147879
724.436	0.0147816
724.514	0.0147388
724.592	0.0147784
724.670	0.0146816
724.748	0.0145670
724.826	0.0146390
724.905	0.0145901
724.983	0.0144928
725.061	0.0144973
725.139	0.0144292
725.217	0.0145126
725.295	0.0143747
725.373	0.0144067
725.451	0.0143809
725.530	0.0144648
725.608	0.0145277
725.686	0.0144239
