05/20/2022	16:24:37	Ver.	4.1	UNKNOWN
Optical Delay	639.982744	Delta X		0.078125	Sweeps	1	Scan Rate	0/0
Coordinates	Axis 1	NaN	Axis 2	NaN	Axis 3	NaN	Axis 4	NaN	Axis 5	NaN	Axis 6	0.000000
TX Power	0.000000	RX Power	0.000000

639.983	0.0147444
640.061	0.0148664
640.139	0.0147643
640.217	0.0147091
640.295	0.0147182
640.373	0.0148584
640.451	0.0149462
640.530	0.0148720
640.608	0.0149173
640.686	0.0148640
640.764	0.0147550
640.842	0.0148520
640.920	0.0148321
640.998	0.0148425
641.076	0.0148442
641.155	0.0147168
641.233	0.0147787
641.311	0.0148392
641.389	0.0147266
641.467	0.0147833
641.545	0.0149734
641.623	0.0148658
641.701	0.0146195
641.780	0.0148521
641.858	0.0149490
641.936	0.0148827
642.014	0.0149149
642.092	0.0147816
642.170	0.0148518
642.248	0.0148003
642.326	0.0148658
642.405	0.0148814
642.483	0.0147980
642.561	0.0147973
642.639	0.0148892
642.717	0.0147753
642.795	0.0147875
642.873	0.0147516
642.951	0.0148884
643.030	0.0148926
643.108	0.0146745
643.186	0.0147955
643.264	0.0149159
643.342	0.0147874
643.420	0.0148874
643.498	0.0148116
643.576	0.0149409
643.655	0.0149033
643.733	0.0148074
643.811	0.0149212
643.889	0.0149828
643.967	0.0147891
644.045	0.0148812
644.123	0.0148923
644.201	0.0149556
644.280	0.0149696
644.358	0.0151064
644.436	0.0149123
644.514	0.0148473
644.592	0.0148238
644.670	0.0148559
644.748	0.0148597
644.826	0.0148413
644.905	0.0148705
644.983	0.0147952
645.061	0.0147932
645.139	0.0148907
645.217	0.0148855
645.295	0.0148680
645.373	0.0149794
645.451	0.0149203
645.530	0.0149127
645.608	0.0149198
645.686	0.0149150
645.764	0.0149181
645.842	0.0148752
645.920	0.0149187
645.998	0.0149860
646.076	0.0148379
646.155	0.0150095
646.233	0.0148701
646.311	0.0148428
646.389	0.0149085
646.467	0.0149970
646.545	0.0150433
646.623	0.0148943
646.701	0.0148991
646.780	0.0148454
646.858	0.0149458
646.936	0.0147807
647.014	0.0148798
647.092	0.0149547
647.170	0.0148268
647.248	0.0148841
647.326	0.0147569
647.405	0.0148296
647.483	0.0148539
647.561	0.0149016
647.639	0.0149108
647.717	0.0149226
647.795	0.0148849
647.873	0.0149260
647.951	0.0149687
648.030	0.0147667
648.108	0.0148246
648.186	0.0148315
648.264	0.0148272
648.342	0.0148493
648.420	0.0149217
648.498	0.0149370
648.576	0.0148579
648.655	0.0148209
648.733	0.0147016
648.811	0.0149003
648.889	0.0149754
648.967	0.0148957
649.045	0.0147891
649.123	0.0149323
649.201	0.0148039
649.280	0.0147005
649.358	0.0150410
649.436	0.0148312
649.514	0.0147589
649.592	0.0147788
649.670	0.0148085
649.748	0.0149122
649.826	0.0147695
649.905	0.0148479
649.983	0.0148215
650.061	0.0148575
650.139	0.0147807
650.217	0.0147375
650.295	0.0147547
650.373	0.0150140
650.451	0.0149011
650.530	0.0148344
650.608	0.0147520
650.686	0.0149420
650.764	0.0149027
650.842	0.0148185
650.920	0.0148029
650.998	0.0149422
651.076	0.0150715
651.155	0.0147874
651.233	0.0148637
651.311	0.0149953
651.389	0.0149758
651.467	0.0148270
651.545	0.0149310
651.623	0.0149178
651.701	0.0147681
651.780	0.0149043
651.858	0.0149551
651.936	0.0149382
652.014	0.0148898
652.092	0.0149458
652.170	0.0148699
652.248	0.0147319
652.326	0.0147885
652.405	0.0150054
652.483	0.0149166
652.561	0.0148766
652.639	0.0147121
652.717	0.0147434
652.795	0.0147942
652.873	0.0146703
652.951	0.0147541
653.030	0.0147141
653.108	0.0148385
653.186	0.0147440
653.264	0.0147036
653.342	0.0146136
653.420	0.0148386
653.498	0.0147053
653.576	0.0148484
653.655	0.0147003
653.733	0.0149014
653.811	0.0148105
653.889	0.0146584
653.967	0.0147124
654.045	0.0147937
654.123	0.0147010
654.201	0.0148122
654.280	0.0148074
654.358	0.0147623
654.436	0.0146956
654.514	0.0147203
654.592	0.0146471
654.670	0.0147991
654.748	0.0146925
654.826	0.0146055
654.905	0.0146288
654.983	0.0146721
655.061	0.0147238
655.139	0.0147607
655.217	0.0145813
655.295	0.0144578
655.373	0.0146835
655.451	0.0148440
655.530	0.0148675
655.608	0.0147385
655.686	0.0146981
655.764	0.0147278
655.842	0.0147509
655.920	0.0148494
655.998	0.0147373
656.076	0.0146413
656.155	0.0147015
656.233	0.0147952
656.311	0.0148100
656.389	0.0146833
656.467	0.0149385
656.545	0.0147859
656.623	0.0147505
656.701	0.0149087
656.780	0.0148893
656.858	0.0147910
656.936	0.0146708
657.014	0.0147678
657.092	0.0148238
657.170	0.0148064
657.248	0.0147378
657.326	0.0147776
657.405	0.0148743
657.483	0.0149397
657.561	0.0148979
657.639	0.0148075
657.717	0.0146968
657.795	0.0148109
657.873	0.0148899
657.951	0.0148963
658.030	0.0147176
658.108	0.0148959
658.186	0.0148279
658.264	0.0148296
658.342	0.0149021
658.420	0.0147977
658.498	0.0148832
658.576	0.0147750
658.655	0.0147622
658.733	0.0148350
658.811	0.0148305
658.889	0.0147455
658.967	0.0148874
659.045	0.0148463
659.123	0.0148161
659.201	0.0148644
659.280	0.0148009
659.358	0.0148784
659.436	0.0148832
659.514	0.0148410
659.592	0.0149014
659.670	0.0149173
659.748	0.0148843
659.826	0.0148608
659.905	0.0147878
659.983	0.0149701
660.061	0.0149055
660.139	0.0149075
660.217	0.0150101
660.295	0.0149052
660.373	0.0146928
660.451	0.0147640
660.530	0.0147789
660.608	0.0149506
660.686	0.0149709
660.764	0.0148080
660.842	0.0147646
660.920	0.0147081
660.998	0.0147636
661.076	0.0148515
661.155	0.0149044
661.233	0.0148001
661.311	0.0149281
661.389	0.0148327
661.467	0.0147041
661.545	0.0150207
661.623	0.0150994
661.701	0.0149308
661.780	0.0149235
661.858	0.0150126
661.936	0.0147537
662.014	0.0149514
662.092	0.0150119
662.170	0.0148726
662.248	0.0148395
662.326	0.0149744
662.405	0.0148656
662.483	0.0148469
662.561	0.0147108
662.639	0.0147794
662.717	0.0147866
662.795	0.0146239
662.873	0.0147321
662.951	0.0147383
663.030	0.0147292
663.108	0.0145649
663.186	0.0145530
663.264	0.0146428
663.342	0.0147574
663.420	0.0147633
663.498	0.0147156
663.576	0.0147362
663.655	0.0148357
663.733	0.0147785
663.811	0.0148489
663.889	0.0148264
663.967	0.0148565
664.045	0.0149713
664.123	0.0148904
664.201	0.0148929
664.280	0.0149203
664.358	0.0150862
664.436	0.0149213
664.514	0.0149785
664.592	0.0147517
664.670	0.0147971
664.748	0.0149347
664.826	0.0147672
664.905	0.0147049
664.983	0.0146693
665.061	0.0146075
665.139	0.0146378
665.217	0.0146548
665.295	0.0147665
665.373	0.0146872
665.451	0.0146710
665.530	0.0147237
665.608	0.0146179
665.686	0.0147948
665.764	0.0147458
665.842	0.0149342
665.920	0.0148676
665.998	0.0147823
666.076	0.0148437
666.155	0.0148647
666.233	0.0148795
666.311	0.0148652
666.389	0.0147859
666.467	0.0148969
666.545	0.0149538
666.623	0.0148614
666.701	0.0149454
666.780	0.0149144
666.858	0.0150130
666.936	0.0147742
667.014	0.0148873
667.092	0.0149225
667.170	0.0147963
667.248	0.0148643
667.326	0.0148186
667.405	0.0147833
667.483	0.0147459
667.561	0.0145853
667.639	0.0146231
667.717	0.0146437
667.795	0.0147295
667.873	0.0147891
667.951	0.0146951
668.030	0.0147330
668.108	0.0147169
668.186	0.0146157
668.264	0.0147256
668.342	0.0147376
668.420	0.0147765
668.498	0.0148424
668.576	0.0150190
668.655	0.0149316
668.733	0.0148354
668.811	0.0148406
668.889	0.0149437
668.967	0.0147628
669.045	0.0149176
669.123	0.0148552
669.201	0.0147839
669.280	0.0146895
669.358	0.0147944
669.436	0.0146851
669.514	0.0146750
669.592	0.0147780
669.670	0.0147372
669.748	0.0146662
669.826	0.0147176
669.905	0.0147224
669.983	0.0147195
670.061	0.0146282
670.139	0.0146893
670.217	0.0147068
670.295	0.0146819
670.373	0.0148272
670.451	0.0146758
670.530	0.0148240
670.608	0.0149022
670.686	0.0148732
670.764	0.0149186
670.842	0.0150303
670.920	0.0147362
670.998	0.0150681
671.076	0.0149924
671.155	0.0149513
671.233	0.0149784
671.311	0.0149178
671.389	0.0149204
671.467	0.0149012
671.545	0.0148471
671.623	0.0148717
671.701	0.0148630
671.780	0.0147392
671.858	0.0147491
671.936	0.0147389
672.014	0.0145668
672.092	0.0147342
672.170	0.0147471
672.248	0.0148177
672.326	0.0146988
672.405	0.0146458
672.483	0.0147922
672.561	0.0148322
672.639	0.0148134
672.717	0.0148073
672.795	0.0148567
672.873	0.0149441
672.951	0.0149178
673.030	0.0148875
673.108	0.0149188
673.186	0.0149351
673.264	0.0147856
673.342	0.0149378
673.420	0.0150201
673.498	0.0149084
673.576	0.0148909
673.655	0.0148566
673.733	0.0148239
673.811	0.0148430
673.889	0.0149848
673.967	0.0148869
674.045	0.0148380
674.123	0.0149117
674.201	0.0147744
674.280	0.0146646
674.358	0.0147650
674.436	0.0147704
674.514	0.0147894
674.592	0.0147855
674.670	0.0147723
674.748	0.0147897
674.826	0.0147440
674.905	0.0147601
674.983	0.0148764
675.061	0.0148473
675.139	0.0148239
675.217	0.0148527
675.295	0.0147903
675.373	0.0148506
675.451	0.0148868
675.530	0.0148900
675.608	0.0148300
675.686	0.0149987
675.764	0.0149316
675.842	0.0149483
675.920	0.0150967
675.998	0.0149796
676.076	0.0148917
676.155	0.0149341
676.233	0.0148336
676.311	0.0149225
676.389	0.0148975
676.467	0.0148078
676.545	0.0146838
676.623	0.0147670
676.701	0.0147045
676.780	0.0147217
676.858	0.0148268
676.936	0.0148308
677.014	0.0148239
677.092	0.0149174
677.170	0.0151059
677.248	0.0148917
677.326	0.0150084
677.405	0.0150720
677.483	0.0149026
677.561	0.0150996
677.639	0.0150290
677.717	0.0150868
677.795	0.0150465
677.873	0.0150111
677.951	0.0149328
678.030	0.0149583
678.108	0.0147711
678.186	0.0146037
678.264	0.0144820
678.342	0.0144349
678.420	0.0143131
678.498	0.0144080
678.576	0.0143205
678.655	0.0143599
678.733	0.0145255
678.811	0.0145013
678.889	0.0145943
678.967	0.0146918
679.045	0.0147787
679.123	0.0149012
679.201	0.0151015
679.280	0.0153182
679.358	0.0154890
679.436	0.0154832
679.514	0.0154164
679.592	0.0155662
679.670	0.0154569
679.748	0.0155050
679.826	0.0154026
679.905	0.0149659
679.983	0.0151157
680.061	0.0148608
680.139	0.0145621
680.217	0.0144014
680.295	0.0144253
680.373	0.0141611
680.451	0.0141675
680.530	0.0141672
680.608	0.0143092
680.686	0.0142104
680.764	0.0143927
680.842	0.0142706
680.920	0.0145561
680.998	0.0147536
681.076	0.0147655
681.155	0.0148362
681.233	0.0150153
681.311	0.0151371
681.389	0.0149937
681.467	0.0150829
681.545	0.0152840
681.623	0.0150936
681.701	0.0150056
681.780	0.0150812
681.858	0.0152672
681.936	0.0152404
682.014	0.0151549
682.092	0.0151548
682.170	0.0151953
682.248	0.0152161
682.326	0.0152419
682.405	0.0152827
682.483	0.0151937
682.561	0.0151556
682.639	0.0150866
682.717	0.0151039
682.795	0.0150037
682.873	0.0148573
682.951	0.0147574
683.030	0.0147351
683.108	0.0145691
683.186	0.0144804
683.264	0.0145865
683.342	0.0144820
683.420	0.0145235
683.498	0.0146694
683.576	0.0147473
683.655	0.0148723
683.733	0.0150973
683.811	0.0149856
683.889	0.0150892
683.967	0.0150870
684.045	0.0151974
684.123	0.0151437
684.201	0.0150183
684.280	0.0147515
684.358	0.0147337
684.436	0.0145492
684.514	0.0144137
684.592	0.0141264
684.670	0.0141681
684.748	0.0141055
684.826	0.0139969
684.905	0.0139171
684.983	0.0139874
685.061	0.0141244
685.139	0.0142682
685.217	0.0144234
685.295	0.0144807
685.373	0.0146743
685.451	0.0148891
685.530	0.0151651
685.608	0.0151880
685.686	0.0153597
685.764	0.0155253
685.842	0.0155238
685.920	0.0157137
685.998	0.0157774
686.076	0.0158585
686.155	0.0157911
686.233	0.0157986
686.311	0.0157516
686.389	0.0158244
686.467	0.0157840
686.545	0.0157391
686.623	0.0157483
686.701	0.0156982
686.780	0.0155561
686.858	0.0154043
686.936	0.0152551
687.014	0.0151960
687.092	0.0150775
687.170	0.0148435
687.248	0.0148238
687.326	0.0146744
687.405	0.0147935
687.483	0.0145197
687.561	0.0143474
687.639	0.0143190
687.717	0.0140992
687.795	0.0140218
687.873	0.0138827
687.951	0.0137688
688.030	0.0135818
688.108	0.0133157
688.186	0.0131808
688.264	0.0131007
688.342	0.0128988
688.420	0.0128489
688.498	0.0128340
688.576	0.0128860
688.655	0.0132136
688.733	0.0132620
688.811	0.0134396
688.889	0.0139938
688.967	0.0143069
689.045	0.0148038
689.123	0.0151355
689.201	0.0156176
689.280	0.0158701
689.358	0.0162433
689.436	0.0164781
689.514	0.0167448
689.592	0.0168900
689.670	0.0169376
689.748	0.0167119
689.826	0.0167930
689.905	0.0167485
689.983	0.0164399
690.061	0.0162154
690.139	0.0161208
690.217	0.0158755
690.295	0.0156628
690.373	0.0154028
690.451	0.0151710
690.530	0.0148997
690.608	0.0147375
690.686	0.0147510
690.764	0.0142803
690.842	0.0141071
690.920	0.0138954
690.998	0.0135439
691.076	0.0133687
691.155	0.0132584
691.233	0.0130242
691.311	0.0129595
691.389	0.0129281
691.467	0.0129629
691.545	0.0131543
691.623	0.0134216
691.701	0.0134523
691.780	0.0136820
691.858	0.0140527
691.936	0.0142678
692.014	0.0147739
692.092	0.0148859
692.170	0.0151671
692.248	0.0153098
692.326	0.0154008
692.405	0.0156261
692.483	0.0155262
692.561	0.0155462
692.639	0.0155608
692.717	0.0156788
692.795	0.0155171
692.873	0.0154564
692.951	0.0152390
693.030	0.0153042
693.108	0.0152195
693.186	0.0151791
693.264	0.0151694
693.342	0.0152614
693.420	0.0152798
693.498	0.0153968
693.576	0.0154639
693.655	0.0154776
693.733	0.0155242
693.811	0.0156620
693.889	0.0157702
693.967	0.0155235
694.045	0.0154118
694.123	0.0154404
694.201	0.0154635
694.280	0.0151713
694.358	0.0149326
694.436	0.0148559
694.514	0.0145523
694.592	0.0142445
694.670	0.0141866
694.748	0.0138288
694.826	0.0135718
694.905	0.0134225
694.983	0.0132974
695.061	0.0133257
695.139	0.0133866
695.217	0.0134879
695.295	0.0133273
695.373	0.0135086
695.451	0.0135553
695.530	0.0135152
695.608	0.0139773
695.686	0.0140838
695.764	0.0142480
695.842	0.0144024
695.920	0.0147735
695.998	0.0147557
696.076	0.0150713
696.155	0.0153243
696.233	0.0155667
696.311	0.0157227
696.389	0.0159581
696.467	0.0159724
696.545	0.0161941
696.623	0.0162644
696.701	0.0164169
696.780	0.0163983
696.858	0.0163010
696.936	0.0164624
697.014	0.0165182
697.092	0.0163206
697.170	0.0162923
697.248	0.0160924
697.326	0.0160488
697.405	0.0159020
697.483	0.0156989
697.561	0.0156591
697.639	0.0156334
697.717	0.0154157
697.795	0.0152534
697.873	0.0151077
697.951	0.0148708
698.030	0.0146432
698.108	0.0144406
698.186	0.0141895
698.264	0.0138863
698.342	0.0137885
698.420	0.0136595
698.498	0.0133946
698.576	0.0132354
698.655	0.0132775
698.733	0.0132896
698.811	0.0131962
698.889	0.0133347
698.967	0.0134167
699.045	0.0134325
699.123	0.0136185
699.201	0.0137790
699.280	0.0137908
699.358	0.0138013
699.436	0.0138689
699.514	0.0139706
699.592	0.0139428
699.670	0.0139220
699.748	0.0139870
699.826	0.0140190
699.905	0.0139740
699.983	0.0141872
700.061	0.0144804
700.139	0.0145365
700.217	0.0149713
700.295	0.0152383
700.373	0.0153831
700.451	0.0157570
700.530	0.0161316
700.608	0.0164776
700.686	0.0167538
700.764	0.0169813
700.842	0.0170821
700.920	0.0172218
700.998	0.0171222
701.076	0.0171912
701.155	0.0170377
701.233	0.0167280
701.311	0.0166074
701.389	0.0162940
701.467	0.0160770
701.545	0.0157474
701.623	0.0155831
701.701	0.0152003
701.780	0.0150390
701.858	0.0147435
701.936	0.0143784
702.014	0.0143179
702.092	0.0141115
702.170	0.0139077
702.248	0.0138457
702.326	0.0137051
702.405	0.0136871
702.483	0.0136179
702.561	0.0135577
702.639	0.0136568
702.717	0.0137515
702.795	0.0138412
702.873	0.0139334
702.951	0.0139294
703.030	0.0140886
703.108	0.0143076
703.186	0.0142793
703.264	0.0145385
703.342	0.0145723
703.420	0.0144952
703.498	0.0142947
703.576	0.0145448
703.655	0.0145612
703.733	0.0144180
703.811	0.0144543
703.889	0.0145514
703.967	0.0144284
704.045	0.0145612
704.123	0.0146523
704.201	0.0147421
704.280	0.0148585
704.358	0.0149256
704.436	0.0151418
704.514	0.0152396
704.592	0.0150579
704.670	0.0153094
704.748	0.0153968
704.826	0.0154993
704.905	0.0153571
704.983	0.0153715
705.061	0.0154433
705.139	0.0152958
705.217	0.0153236
705.295	0.0153268
705.373	0.0151943
705.451	0.0152397
705.530	0.0151782
705.608	0.0152299
705.686	0.0152927
705.764	0.0152654
705.842	0.0151832
705.920	0.0151477
705.998	0.0150214
706.076	0.0151460
706.155	0.0152053
706.233	0.0151885
706.311	0.0152566
706.389	0.0151621
706.467	0.0151930
706.545	0.0153346
706.623	0.0153474
706.701	0.0152013
706.780	0.0151891
706.858	0.0149666
706.936	0.0149969
707.014	0.0147644
707.092	0.0146615
707.170	0.0143686
707.248	0.0143124
707.326	0.0141908
707.405	0.0139949
707.483	0.0138087
707.561	0.0136780
707.639	0.0135257
707.717	0.0134350
707.795	0.0134692
707.873	0.0134325
707.951	0.0133998
708.030	0.0134263
708.108	0.0133746
708.186	0.0135270
708.264	0.0134654
708.342	0.0136214
708.420	0.0138081
708.498	0.0139030
708.576	0.0142100
708.655	0.0144337
708.733	0.0146253
708.811	0.0149106
708.889	0.0150256
708.967	0.0151646
709.045	0.0154540
709.123	0.0155084
709.201	0.0157522
709.280	0.0158150
709.358	0.0158865
709.436	0.0158176
709.514	0.0159679
709.592	0.0158352
709.670	0.0160331
709.748	0.0159942
709.826	0.0158044
709.905	0.0156961
709.983	0.0155809
710.061	0.0155424
710.139	0.0154490
710.217	0.0154538
710.295	0.0152509
710.373	0.0150401
710.451	0.0151455
710.530	0.0151217
710.608	0.0150771
710.686	0.0150556
710.764	0.0151781
710.842	0.0151740
710.920	0.0151196
710.998	0.0150989
711.076	0.0152069
711.155	0.0150350
711.233	0.0149907
711.311	0.0147311
711.389	0.0147661
711.467	0.0145434
711.545	0.0142667
711.623	0.0142654
711.701	0.0138535
711.780	0.0137151
711.858	0.0136184
711.936	0.0134746
712.014	0.0133440
712.092	0.0132854
712.170	0.0133616
712.248	0.0135293
712.326	0.0137354
712.405	0.0140089
712.483	0.0140762
712.561	0.0141734
712.639	0.0145023
712.717	0.0146271
712.795	0.0147742
712.873	0.0147215
712.951	0.0146786
713.030	0.0147076
713.108	0.0147034
713.186	0.0146387
713.264	0.0145334
713.342	0.0146287
713.420	0.0147216
713.498	0.0147333
713.576	0.0147236
713.655	0.0147902
713.733	0.0148341
713.811	0.0150434
713.889	0.0152029
713.967	0.0150724
714.045	0.0150777
714.123	0.0150377
714.201	0.0152721
714.280	0.0152370
714.358	0.0151305
714.436	0.0150783
714.514	0.0152904
714.592	0.0151487
714.670	0.0151662
714.748	0.0150973
714.826	0.0150740
714.905	0.0152077
714.983	0.0149747
715.061	0.0147939
715.139	0.0146696
715.217	0.0145725
715.295	0.0145376
715.373	0.0145216
715.451	0.0144514
715.530	0.0142693
715.608	0.0144077
715.686	0.0143832
715.764	0.0143576
715.842	0.0144964
715.920	0.0146410
715.998	0.0149232
716.076	0.0147321
716.155	0.0147643
716.233	0.0148713
716.311	0.0149181
716.389	0.0149793
716.467	0.0148555
716.545	0.0148297
716.623	0.0147695
716.701	0.0146881
716.780	0.0147045
716.858	0.0148360
716.936	0.0148526
717.014	0.0149680
717.092	0.0150132
717.170	0.0150452
717.248	0.0152668
717.326	0.0153490
717.405	0.0152983
717.483	0.0155466
717.561	0.0152590
717.639	0.0152852
717.717	0.0152806
717.795	0.0152662
717.873	0.0152134
717.951	0.0153762
718.030	0.0151221
718.108	0.0150188
718.186	0.0151006
718.264	0.0152066
718.342	0.0151560
718.420	0.0152035
718.498	0.0151294
718.576	0.0151795
718.655	0.0150320
718.733	0.0150050
718.811	0.0147288
718.889	0.0146545
718.967	0.0145137
719.045	0.0142678
719.123	0.0141889
719.201	0.0137666
719.280	0.0138129
719.358	0.0135993
719.436	0.0136652
719.514	0.0137238
719.592	0.0135432
719.670	0.0136026
719.748	0.0137812
719.826	0.0138526
719.905	0.0140664
719.983	0.0141061
720.061	0.0144109
720.139	0.0144479
720.217	0.0147548
720.295	0.0146767
720.373	0.0148986
720.451	0.0150997
720.530	0.0150298
720.608	0.0150994
720.686	0.0150476
720.764	0.0150451
720.842	0.0150137
720.920	0.0148911
720.998	0.0146766
721.076	0.0146986
721.155	0.0146363
721.233	0.0144859
721.311	0.0144034
721.389	0.0144616
721.467	0.0144707
721.545	0.0145838
721.623	0.0146301
721.701	0.0146474
721.780	0.0147603
721.858	0.0149933
721.936	0.0150648
722.014	0.0153253
722.092	0.0154606
722.170	0.0155641
722.248	0.0156583
722.326	0.0156056
722.405	0.0156869
722.483	0.0157310
722.561	0.0157629
722.639	0.0156323
722.717	0.0156445
722.795	0.0155951
722.873	0.0156228
722.951	0.0154083
723.030	0.0154156
723.108	0.0154268
723.186	0.0151842
723.264	0.0150832
723.342	0.0149924
723.420	0.0149374
723.498	0.0147926
723.576	0.0146954
723.655	0.0145387
723.733	0.0146275
723.811	0.0145817
723.889	0.0145087
723.967	0.0147043
724.045	0.0147179
724.123	0.0147810
724.201	0.0147847
724.280	0.0148382
724.358	0.0147964
724.436	0.0148875
724.514	0.0149929
724.592	0.0150069
724.670	0.0148484
724.748	0.0148582
724.826	0.0148348
724.905	0.0147102
724.983	0.0148208
725.061	0.0148500
725.139	0.0147215
725.217	0.0147871
725.295	0.0149516
725.373	0.0148615
725.451	0.0149466
725.530	0.0147710
725.608	0.0148010
725.686	0.0148883
