05/20/2022	16:25:02	Ver.	4.1	UNKNOWN
Optical Delay	639.982744	Delta X		0.078125	Sweeps	1	Scan Rate	0/0
Coordinates	Axis 1	NaN	Axis 2	NaN	Axis 3	NaN	Axis 4	NaN	Axis 5	NaN	Axis 6	0.000000
TX Power	0.000000	RX Power	0.000000

639.983	0.0146301
640.061	0.0147934
640.139	0.0146257
640.217	0.0147256
640.295	0.0145969
640.373	0.0146828
640.451	0.0146978
640.530	0.0147282
640.608	0.0146520
640.686	0.0147614
640.764	0.0147009
640.842	0.0146366
640.920	0.0146530
640.998	0.0145869
641.076	0.0147079
641.155	0.0145725
641.233	0.0147365
641.311	0.0146513
641.389	0.0145611
641.467	0.0147821
641.545	0.0146921
641.623	0.0146119
641.701	0.0145975
641.780	0.0146677
641.858	0.0146832
641.936	0.0145967
642.014	0.0146766
642.092	0.0146808
642.170	0.0147750
642.248	0.0146622
642.326	0.0146220
642.405	0.0146168
642.483	0.0147786
642.561	0.0146696
642.639	0.0145853
642.717	0.0146165
642.795	0.0146830
642.873	0.0146256
642.951	0.0145722
643.030	0.0145258
643.108	0.0145202
643.186	0.0146279
643.264	0.0145574
643.342	0.0145821
643.420	0.0146054
643.498	0.0147141
643.576	0.0145834
643.655	0.0146086
643.733	0.0145780
643.811	0.0147205
643.889	0.0145745
643.967	0.0146344
644.045	0.0145822
644.123	0.0147012
644.201	0.0146249
644.280	0.0145164
644.358	0.0145036
644.436	0.0146807
644.514	0.0146409
644.592	0.0146451
644.670	0.0146278
644.748	0.0145853
644.826	0.0146364
644.905	0.0145843
644.983	0.0146212
645.061	0.0146382
645.139	0.0147592
645.217	0.0146516
645.295	0.0147080
645.373	0.0146527
645.451	0.0146437
645.530	0.0146656
645.608	0.0145374
645.686	0.0146060
645.764	0.0146121
645.842	0.0147218
645.920	0.0145552
645.998	0.0145876
646.076	0.0146328
646.155	0.0146635
646.233	0.0146001
646.311	0.0145541
646.389	0.0145619
646.467	0.0147202
646.545	0.0145923
646.623	0.0146760
646.701	0.0146363
646.780	0.0145995
646.858	0.0145662
646.936	0.0147530
647.014	0.0146802
647.092	0.0145381
647.170	0.0145829
647.248	0.0145597
647.326	0.0146046
647.405	0.0146452
647.483	0.0145509
647.561	0.0145670
647.639	0.0145698
647.717	0.0147022
647.795	0.0144807
647.873	0.0146274
647.951	0.0146842
648.030	0.0145305
648.108	0.0145904
648.186	0.0145127
648.264	0.0145963
648.342	0.0145898
648.420	0.0144954
648.498	0.0144889
648.576	0.0146167
648.655	0.0145966
648.733	0.0145390
648.811	0.0146049
648.889	0.0144917
648.967	0.0143979
649.045	0.0144646
649.123	0.0144046
649.201	0.0145544
649.280	0.0145396
649.358	0.0144877
649.436	0.0145892
649.514	0.0145799
649.592	0.0144992
649.670	0.0145554
649.748	0.0144453
649.826	0.0145510
649.905	0.0145060
649.983	0.0146318
650.061	0.0144481
650.139	0.0145033
650.217	0.0144826
650.295	0.0145444
650.373	0.0145374
650.451	0.0144808
650.530	0.0145393
650.608	0.0145311
650.686	0.0145432
650.764	0.0144466
650.842	0.0145265
650.920	0.0144968
650.998	0.0145033
651.076	0.0145142
651.155	0.0145506
651.233	0.0146802
651.311	0.0144503
651.389	0.0144737
651.467	0.0145679
651.545	0.0145403
651.623	0.0145645
651.701	0.0145139
651.780	0.0146295
651.858	0.0146752
651.936	0.0146488
652.014	0.0145908
652.092	0.0146482
652.170	0.0144709
652.248	0.0146217
652.326	0.0146870
652.405	0.0146365
652.483	0.0143976
652.561	0.0146265
652.639	0.0145320
652.717	0.0145736
652.795	0.0145382
652.873	0.0147731
652.951	0.0144449
653.030	0.0144867
653.108	0.0145090
653.186	0.0145786
653.264	0.0146404
653.342	0.0145984
653.420	0.0146639
653.498	0.0146130
653.576	0.0146249
653.655	0.0146744
653.733	0.0145717
653.811	0.0147680
653.889	0.0147070
653.967	0.0147520
654.045	0.0147160
654.123	0.0146968
654.201	0.0147405
654.280	0.0147066
654.358	0.0147603
654.436	0.0145219
654.514	0.0146465
654.592	0.0145957
654.670	0.0146667
654.748	0.0147517
654.826	0.0148072
654.905	0.0147945
654.983	0.0147410
655.061	0.0146866
655.139	0.0146435
655.217	0.0148534
655.295	0.0148485
655.373	0.0146647
655.451	0.0145876
655.530	0.0146350
655.608	0.0147421
655.686	0.0146832
655.764	0.0146396
655.842	0.0146745
655.920	0.0146426
655.998	0.0147180
656.076	0.0144855
656.155	0.0145581
656.233	0.0147528
656.311	0.0146224
656.389	0.0146838
656.467	0.0146300
656.545	0.0146085
656.623	0.0145335
656.701	0.0146857
656.780	0.0148363
656.858	0.0146827
656.936	0.0146191
657.014	0.0146935
657.092	0.0145371
657.170	0.0147012
657.248	0.0147651
657.326	0.0145829
657.405	0.0146233
657.483	0.0146184
657.561	0.0146014
657.639	0.0146825
657.717	0.0146153
657.795	0.0145911
657.873	0.0145332
657.951	0.0146547
658.030	0.0148106
658.108	0.0146160
658.186	0.0145863
658.264	0.0145596
658.342	0.0146864
658.420	0.0144970
658.498	0.0146280
658.576	0.0146243
658.655	0.0145081
658.733	0.0144325
658.811	0.0144968
658.889	0.0146790
658.967	0.0146528
659.045	0.0145651
659.123	0.0145119
659.201	0.0145416
659.280	0.0144115
659.358	0.0145608
659.436	0.0145829
659.514	0.0147607
659.592	0.0147145
659.670	0.0146979
659.748	0.0148121
659.826	0.0146226
659.905	0.0146127
659.983	0.0147439
660.061	0.0147256
660.139	0.0148103
660.217	0.0147142
660.295	0.0148008
660.373	0.0146140
660.451	0.0146756
660.530	0.0146734
660.608	0.0147155
660.686	0.0145362
660.764	0.0146072
660.842	0.0145743
660.920	0.0146236
660.998	0.0145617
661.076	0.0144925
661.155	0.0145967
661.233	0.0145596
661.311	0.0145008
661.389	0.0145087
661.467	0.0146694
661.545	0.0145408
661.623	0.0145979
661.701	0.0145273
661.780	0.0146532
661.858	0.0147440
661.936	0.0147572
662.014	0.0147174
662.092	0.0148665
662.170	0.0146246
662.248	0.0147647
662.326	0.0147569
662.405	0.0148569
662.483	0.0148208
662.561	0.0148308
662.639	0.0147881
662.717	0.0146406
662.795	0.0145736
662.873	0.0145589
662.951	0.0144978
663.030	0.0144845
663.108	0.0146100
663.186	0.0144677
663.264	0.0144003
663.342	0.0146721
663.420	0.0144413
663.498	0.0144072
663.576	0.0145313
663.655	0.0144831
663.733	0.0145466
663.811	0.0145315
663.889	0.0143613
663.967	0.0145085
664.045	0.0146790
664.123	0.0145992
664.201	0.0145161
664.280	0.0145721
664.358	0.0145686
664.436	0.0147445
664.514	0.0147088
664.592	0.0147895
664.670	0.0147221
664.748	0.0146513
664.826	0.0146817
664.905	0.0147527
664.983	0.0146567
665.061	0.0147057
665.139	0.0145284
665.217	0.0146996
665.295	0.0146230
665.373	0.0145020
665.451	0.0144884
665.530	0.0145862
665.608	0.0144335
665.686	0.0144029
665.764	0.0144998
665.842	0.0145483
665.920	0.0145376
665.998	0.0144949
666.076	0.0144965
666.155	0.0144323
666.233	0.0145906
666.311	0.0147396
666.389	0.0146767
666.467	0.0146678
666.545	0.0146723
666.623	0.0148177
666.701	0.0147940
666.780	0.0148385
666.858	0.0149184
666.936	0.0147485
667.014	0.0147450
667.092	0.0147320
667.170	0.0145819
667.248	0.0147551
667.326	0.0146982
667.405	0.0146500
667.483	0.0144969
667.561	0.0145738
667.639	0.0145474
667.717	0.0145634
667.795	0.0146236
667.873	0.0146088
667.951	0.0145051
668.030	0.0145558
668.108	0.0146877
668.186	0.0147146
668.264	0.0145733
668.342	0.0145641
668.420	0.0146283
668.498	0.0145486
668.576	0.0145824
668.655	0.0146368
668.733	0.0146015
668.811	0.0145952
668.889	0.0147167
668.967	0.0146569
669.045	0.0146301
669.123	0.0147668
669.201	0.0147445
669.280	0.0147838
669.358	0.0146098
669.436	0.0145901
669.514	0.0147048
669.592	0.0147021
669.670	0.0146093
669.748	0.0147672
669.826	0.0145465
669.905	0.0144297
669.983	0.0145139
670.061	0.0146389
670.139	0.0145344
670.217	0.0146540
670.295	0.0146445
670.373	0.0146191
670.451	0.0146069
670.530	0.0145206
670.608	0.0145444
670.686	0.0145899
670.764	0.0146648
670.842	0.0147511
670.920	0.0147757
670.998	0.0147379
671.076	0.0149034
671.155	0.0147588
671.233	0.0146463
671.311	0.0146880
671.389	0.0146924
671.467	0.0147726
671.545	0.0147686
671.623	0.0147128
671.701	0.0149673
671.780	0.0148449
671.858	0.0147695
671.936	0.0147395
672.014	0.0145858
672.092	0.0147460
672.170	0.0148262
672.248	0.0147204
672.326	0.0147167
672.405	0.0146538
672.483	0.0146068
672.561	0.0144943
672.639	0.0147280
672.717	0.0146827
672.795	0.0146606
672.873	0.0146305
672.951	0.0146355
673.030	0.0146871
673.108	0.0145444
673.186	0.0146077
673.264	0.0147525
673.342	0.0146518
673.420	0.0146837
673.498	0.0146667
673.576	0.0146555
673.655	0.0146333
673.733	0.0145761
673.811	0.0146917
673.889	0.0145560
673.967	0.0145593
674.045	0.0146420
674.123	0.0147292
674.201	0.0147188
674.280	0.0147075
674.358	0.0146022
674.436	0.0145161
674.514	0.0146777
674.592	0.0146825
674.670	0.0147753
674.748	0.0146221
674.826	0.0145506
674.905	0.0145964
674.983	0.0146676
675.061	0.0147021
675.139	0.0147413
675.217	0.0146054
675.295	0.0145367
675.373	0.0147128
675.451	0.0146355
675.530	0.0145818
675.608	0.0144997
675.686	0.0146204
675.764	0.0145087
675.842	0.0145258
675.920	0.0146841
675.998	0.0146553
676.076	0.0147472
676.155	0.0146719
676.233	0.0147441
676.311	0.0147277
676.389	0.0148159
676.467	0.0146889
676.545	0.0147766
676.623	0.0147626
676.701	0.0148151
676.780	0.0147483
676.858	0.0147181
676.936	0.0146922
677.014	0.0146820
677.092	0.0145634
677.170	0.0144730
677.248	0.0143035
677.326	0.0142532
677.405	0.0142892
677.483	0.0142152
677.561	0.0142041
677.639	0.0143088
677.717	0.0145161
677.795	0.0145725
677.873	0.0144798
677.951	0.0145633
678.030	0.0147308
678.108	0.0149229
678.186	0.0150169
678.264	0.0151317
678.342	0.0152767
678.420	0.0152715
678.498	0.0151617
678.576	0.0152995
678.655	0.0153038
678.733	0.0151066
678.811	0.0150224
678.889	0.0147302
678.967	0.0146897
679.045	0.0145576
679.123	0.0143353
679.201	0.0144071
679.280	0.0142193
679.358	0.0141705
679.436	0.0141045
679.514	0.0140901
679.592	0.0141354
679.670	0.0141631
679.748	0.0143197
679.826	0.0143197
679.905	0.0144136
679.983	0.0144642
680.061	0.0145188
680.139	0.0146673
680.217	0.0146741
680.295	0.0148938
680.373	0.0148536
680.451	0.0148588
680.530	0.0148853
680.608	0.0149313
680.686	0.0148459
680.764	0.0149012
680.842	0.0148769
680.920	0.0150460
680.998	0.0148769
681.076	0.0148901
681.155	0.0149493
681.233	0.0149728
681.311	0.0149098
681.389	0.0150874
681.467	0.0150877
681.545	0.0149174
681.623	0.0148534
681.701	0.0148084
681.780	0.0147667
681.858	0.0147910
681.936	0.0146035
682.014	0.0144201
682.092	0.0143401
682.170	0.0143812
682.248	0.0142900
682.326	0.0140063
682.405	0.0141546
682.483	0.0140116
682.561	0.0142416
682.639	0.0143774
682.717	0.0144648
682.795	0.0144858
682.873	0.0145706
682.951	0.0146613
683.030	0.0146680
683.108	0.0147136
683.186	0.0145347
683.264	0.0145551
683.342	0.0144958
683.420	0.0143599
683.498	0.0142859
683.576	0.0140668
683.655	0.0139823
683.733	0.0138192
683.811	0.0138207
683.889	0.0138908
683.967	0.0139395
684.045	0.0139621
684.123	0.0139381
684.201	0.0141546
684.280	0.0142094
684.358	0.0142456
684.436	0.0144971
684.514	0.0146407
684.592	0.0147884
684.670	0.0149087
684.748	0.0148533
684.826	0.0150156
684.905	0.0151954
684.983	0.0151357
685.061	0.0152174
685.139	0.0151450
685.217	0.0151689
685.295	0.0153953
685.373	0.0153761
685.451	0.0155211
685.530	0.0153687
685.608	0.0153528
685.686	0.0153741
685.764	0.0151420
685.842	0.0150431
685.920	0.0150285
685.998	0.0150603
686.076	0.0147683
686.155	0.0147541
686.233	0.0147638
686.311	0.0145866
686.389	0.0142757
686.467	0.0144209
686.545	0.0144161
686.623	0.0141843
686.701	0.0141163
686.780	0.0139117
686.858	0.0138390
686.936	0.0137567
687.014	0.0136252
687.092	0.0134624
687.170	0.0133383
687.248	0.0132771
687.326	0.0130051
687.405	0.0127424
687.483	0.0127029
687.561	0.0126357
687.639	0.0127657
687.717	0.0128152
687.795	0.0129308
687.873	0.0133451
687.951	0.0135320
688.030	0.0139371
688.108	0.0144566
688.186	0.0148825
688.264	0.0154858
688.342	0.0158099
688.420	0.0161262
688.498	0.0165605
688.576	0.0167042
688.655	0.0170481
688.733	0.0169280
688.811	0.0169521
688.889	0.0168480
688.967	0.0167940
689.045	0.0165791
689.123	0.0165019
689.201	0.0160793
689.280	0.0158998
689.358	0.0158665
689.436	0.0155161
689.514	0.0152804
689.592	0.0150369
689.670	0.0147697
689.748	0.0146641
689.826	0.0142800
689.905	0.0141920
689.983	0.0138454
690.061	0.0136523
690.139	0.0133721
690.217	0.0130070
690.295	0.0129868
690.373	0.0127016
690.451	0.0126266
690.530	0.0127425
690.608	0.0127180
690.686	0.0126965
690.764	0.0129244
690.842	0.0130839
690.920	0.0134128
690.998	0.0138023
691.076	0.0140134
691.155	0.0142627
691.233	0.0145541
691.311	0.0148969
691.389	0.0151825
691.467	0.0152761
691.545	0.0153757
691.623	0.0155556
691.701	0.0155621
691.780	0.0156306
691.858	0.0158144
691.936	0.0156001
692.014	0.0153953
692.092	0.0154203
692.170	0.0154804
692.248	0.0153829
692.326	0.0153106
692.405	0.0152962
692.483	0.0150854
692.561	0.0151904
692.639	0.0150660
692.717	0.0149926
692.795	0.0150511
692.873	0.0149982
692.951	0.0150720
693.030	0.0150640
693.108	0.0150008
693.186	0.0150030
693.264	0.0148923
693.342	0.0148798
693.420	0.0148440
693.498	0.0148618
693.576	0.0147163
693.655	0.0145448
693.733	0.0143768
693.811	0.0143648
693.889	0.0139552
693.967	0.0138530
694.045	0.0137320
694.123	0.0135706
694.201	0.0134463
694.280	0.0133159
694.358	0.0134961
694.436	0.0132738
694.514	0.0132903
694.592	0.0133479
694.670	0.0133431
694.748	0.0135455
694.826	0.0135771
694.905	0.0137215
694.983	0.0136923
695.061	0.0137990
695.139	0.0141556
695.217	0.0142496
695.295	0.0145264
695.373	0.0147919
695.451	0.0150335
695.530	0.0152058
695.608	0.0156892
695.686	0.0161051
695.764	0.0160701
695.842	0.0163217
695.920	0.0165144
695.998	0.0165351
696.076	0.0166127
696.155	0.0164867
696.233	0.0163864
696.311	0.0163154
696.389	0.0161159
696.467	0.0160977
696.545	0.0159209
696.623	0.0157233
696.701	0.0154020
696.780	0.0152940
696.858	0.0152537
696.936	0.0150314
697.014	0.0147218
697.092	0.0145300
697.170	0.0144039
697.248	0.0142246
697.326	0.0137595
697.405	0.0136705
697.483	0.0134100
697.561	0.0133078
697.639	0.0130314
697.717	0.0127849
697.795	0.0127050
697.873	0.0127960
697.951	0.0128403
698.030	0.0128320
698.108	0.0131023
698.186	0.0130590
698.264	0.0133460
698.342	0.0135976
698.420	0.0137391
698.498	0.0138035
698.576	0.0138853
698.655	0.0141116
698.733	0.0141321
698.811	0.0141035
698.889	0.0141323
698.967	0.0141933
699.045	0.0142776
699.123	0.0144043
699.201	0.0143507
699.280	0.0145490
699.358	0.0148576
699.436	0.0151628
699.514	0.0151980
699.592	0.0153210
699.670	0.0154884
699.748	0.0158578
699.826	0.0159841
699.905	0.0161254
699.983	0.0163737
700.061	0.0165290
700.139	0.0164741
700.217	0.0164749
700.295	0.0165707
700.373	0.0164979
700.451	0.0163849
700.530	0.0162515
700.608	0.0159537
700.686	0.0156982
700.764	0.0154871
700.842	0.0153157
700.920	0.0149279
700.998	0.0147035
701.076	0.0144684
701.155	0.0142372
701.233	0.0140697
701.311	0.0138272
701.389	0.0137556
701.467	0.0134874
701.545	0.0134866
701.623	0.0132705
701.701	0.0132930
701.780	0.0129388
701.858	0.0130257
701.936	0.0130080
702.014	0.0130039
702.092	0.0131171
702.170	0.0130066
702.248	0.0134286
702.326	0.0135102
702.405	0.0136358
702.483	0.0139583
702.561	0.0141415
702.639	0.0141979
702.717	0.0143545
702.795	0.0145934
702.873	0.0147609
702.951	0.0146307
703.030	0.0146192
703.108	0.0145438
703.186	0.0145405
703.264	0.0144585
703.342	0.0143256
703.420	0.0143716
703.498	0.0144055
703.576	0.0142656
703.655	0.0145608
703.733	0.0147372
703.811	0.0151128
703.889	0.0150374
703.967	0.0152525
704.045	0.0154244
704.123	0.0155005
704.201	0.0157449
704.280	0.0155337
704.358	0.0155473
704.436	0.0155460
704.514	0.0153277
704.592	0.0153500
704.670	0.0152840
704.748	0.0152091
704.826	0.0150051
704.905	0.0148807
704.983	0.0148920
705.061	0.0147823
705.139	0.0146023
705.217	0.0145058
705.295	0.0146363
705.373	0.0146126
705.451	0.0145570
705.530	0.0146365
705.608	0.0145579
705.686	0.0146208
705.764	0.0145339
705.842	0.0146643
705.920	0.0146900
705.998	0.0147595
706.076	0.0146396
706.155	0.0145782
706.233	0.0147524
706.311	0.0145228
706.389	0.0144353
706.467	0.0144110
706.545	0.0142438
706.623	0.0141628
706.701	0.0140271
706.780	0.0138843
706.858	0.0137792
706.936	0.0136534
707.014	0.0135852
707.092	0.0134534
707.170	0.0132741
707.248	0.0134156
707.326	0.0132423
707.405	0.0132980
707.483	0.0133082
707.561	0.0134580
707.639	0.0136842
707.717	0.0137717
707.795	0.0138141
707.873	0.0138744
707.951	0.0140154
708.030	0.0142900
708.108	0.0144186
708.186	0.0145464
708.264	0.0146812
708.342	0.0147308
708.420	0.0149915
708.498	0.0152152
708.576	0.0154905
708.655	0.0154168
708.733	0.0155773
708.811	0.0156422
708.889	0.0157291
708.967	0.0157726
709.045	0.0159148
709.123	0.0158588
709.201	0.0157531
709.280	0.0157869
709.358	0.0154745
709.436	0.0156225
709.514	0.0155058
709.592	0.0154102
709.670	0.0152496
709.748	0.0150750
709.826	0.0148747
709.905	0.0147269
709.983	0.0146273
710.061	0.0146709
710.139	0.0146130
710.217	0.0146475
710.295	0.0145959
710.373	0.0145383
710.451	0.0146573
710.530	0.0146679
710.608	0.0145959
710.686	0.0145319
710.764	0.0144796
710.842	0.0144474
710.920	0.0144309
710.998	0.0142506
711.076	0.0141326
711.155	0.0141789
711.233	0.0140628
711.311	0.0140162
711.389	0.0139635
711.467	0.0138973
711.545	0.0137489
711.623	0.0138538
711.701	0.0138364
711.780	0.0137338
711.858	0.0138338
711.936	0.0138245
712.014	0.0137203
712.092	0.0139030
712.170	0.0139462
712.248	0.0140169
712.326	0.0140107
712.405	0.0141241
712.483	0.0142178
712.561	0.0141569
712.639	0.0143149
712.717	0.0143660
712.795	0.0145017
712.873	0.0145726
712.951	0.0144300
713.030	0.0146853
713.108	0.0149014
713.186	0.0149635
713.264	0.0150951
713.342	0.0151965
713.420	0.0152166
713.498	0.0153511
713.576	0.0153938
713.655	0.0154398
713.733	0.0153671
713.811	0.0152647
713.889	0.0153901
713.967	0.0151939
714.045	0.0151973
714.123	0.0150800
714.201	0.0148888
714.280	0.0149176
714.358	0.0147410
714.436	0.0146381
714.514	0.0145966
714.592	0.0144545
714.670	0.0144556
714.748	0.0145398
714.826	0.0143676
714.905	0.0145165
714.983	0.0145891
715.061	0.0144366
715.139	0.0145354
715.217	0.0147430
715.295	0.0146483
715.373	0.0146566
715.451	0.0146208
715.530	0.0146763
715.608	0.0148629
715.686	0.0147545
715.764	0.0146559
715.842	0.0144930
715.920	0.0145355
715.998	0.0144550
716.076	0.0143322
716.155	0.0143005
716.233	0.0144756
716.311	0.0143618
716.389	0.0143262
716.467	0.0144382
716.545	0.0143069
716.623	0.0144554
716.701	0.0144428
716.780	0.0146336
716.858	0.0145361
716.936	0.0144749
717.014	0.0146568
717.092	0.0146407
717.170	0.0149137
717.248	0.0149142
717.326	0.0150188
717.405	0.0152319
717.483	0.0150861
717.561	0.0151866
717.639	0.0152863
717.717	0.0152898
717.795	0.0149831
717.873	0.0149758
717.951	0.0149570
718.030	0.0148053
718.108	0.0146398
718.186	0.0146527
718.264	0.0142858
718.342	0.0141664
718.420	0.0142476
718.498	0.0141129
718.576	0.0140622
718.655	0.0141135
718.733	0.0141315
718.811	0.0140000
718.889	0.0140762
718.967	0.0141769
719.045	0.0139974
719.123	0.0140875
719.201	0.0143844
719.280	0.0144334
719.358	0.0145399
719.436	0.0146734
719.514	0.0147065
719.592	0.0148756
719.670	0.0148817
719.748	0.0149947
719.826	0.0149995
719.905	0.0149597
719.983	0.0149728
720.061	0.0149263
720.139	0.0149550
720.217	0.0149563
720.295	0.0147698
720.373	0.0147074
720.451	0.0145780
720.530	0.0143270
720.608	0.0145042
720.686	0.0142603
720.764	0.0143421
720.842	0.0143037
720.920	0.0141667
720.998	0.0142634
721.076	0.0142200
721.155	0.0144442
721.233	0.0144071
721.311	0.0145520
721.389	0.0147162
721.467	0.0149726
721.545	0.0150814
721.623	0.0152784
721.701	0.0152897
721.780	0.0155165
721.858	0.0156013
721.936	0.0156792
722.014	0.0156954
722.092	0.0156733
722.170	0.0156250
722.248	0.0156213
722.326	0.0154095
722.405	0.0153678
722.483	0.0152103
722.561	0.0150293
722.639	0.0147424
722.717	0.0147060
722.795	0.0145478
722.873	0.0144828
722.951	0.0143193
723.030	0.0141982
723.108	0.0141799
723.186	0.0141926
723.264	0.0141985
723.342	0.0141592
723.420	0.0139886
723.498	0.0143241
723.576	0.0142448
723.655	0.0141299
723.733	0.0142224
723.811	0.0142679
723.889	0.0142419
723.967	0.0142985
724.045	0.0143523
724.123	0.0144504
724.201	0.0142122
724.280	0.0143214
724.358	0.0145192
724.436	0.0144936
724.514	0.0144136
724.592	0.0145662
724.670	0.0145481
724.748	0.0145711
724.826	0.0146752
724.905	0.0147644
724.983	0.0144515
725.061	0.0145375
725.139	0.0144260
725.217	0.0142965
725.295	0.0141108
725.373	0.0140504
725.451	0.0139564
725.530	0.0138973
725.608	0.0139156
725.686	0.0139301
