05/20/2022	16:25:17	Ver.	4.1	UNKNOWN
Optical Delay	639.982744	Delta X		0.078125	Sweeps	1	Scan Rate	0/0
Coordinates	Axis 1	NaN	Axis 2	NaN	Axis 3	NaN	Axis 4	NaN	Axis 5	NaN	Axis 6	0.000000
TX Power	0.000000	RX Power	0.000000

639.983	0.0145373
640.061	0.0143880
640.139	0.0145879
640.217	0.0145377
640.295	0.0145370
640.373	0.0145503
640.451	0.0145036
640.530	0.0144197
640.608	0.0145325
640.686	0.0144976
640.764	0.0145412
640.842	0.0144991
640.920	0.0145133
640.998	0.0145148
641.076	0.0144896
641.155	0.0144448
641.233	0.0144499
641.311	0.0146128
641.389	0.0143343
641.467	0.0144792
641.545	0.0145223
641.623	0.0146191
641.701	0.0146001
641.780	0.0143658
641.858	0.0145837
641.936	0.0144888
642.014	0.0145437
642.092	0.0146156
642.170	0.0144461
642.248	0.0145318
642.326	0.0145487
642.405	0.0145533
642.483	0.0145739
642.561	0.0146355
642.639	0.0146316
642.717	0.0145220
642.795	0.0146124
642.873	0.0145432
642.951	0.0146413
643.030	0.0146054
643.108	0.0145247
643.186	0.0146617
643.264	0.0144706
643.342	0.0144669
643.420	0.0144681
643.498	0.0145825
643.576	0.0145335
643.655	0.0144840
643.733	0.0145763
643.811	0.0144375
643.889	0.0144922
643.967	0.0144016
644.045	0.0144395
644.123	0.0143671
644.201	0.0144849
644.280	0.0145903
644.358	0.0144614
644.436	0.0144152
644.514	0.0144487
644.592	0.0144984
644.670	0.0144268
644.748	0.0145435
644.826	0.0144820
644.905	0.0144862
644.983	0.0144673
645.061	0.0143649
645.139	0.0144289
645.217	0.0144321
645.295	0.0144565
645.373	0.0143803
645.451	0.0143484
645.530	0.0145455
645.608	0.0143336
645.686	0.0144978
645.764	0.0143526
645.842	0.0142815
645.920	0.0142686
645.998	0.0145130
646.076	0.0143913
646.155	0.0143900
646.233	0.0144400
646.311	0.0144431
646.389	0.0143749
646.467	0.0143755
646.545	0.0144236
646.623	0.0145472
646.701	0.0145977
646.780	0.0142836
646.858	0.0143614
646.936	0.0145816
647.014	0.0144250
647.092	0.0142775
647.170	0.0144632
647.248	0.0145655
647.326	0.0144468
647.405	0.0143250
647.483	0.0144694
647.561	0.0143758
647.639	0.0144129
647.717	0.0144785
647.795	0.0144030
647.873	0.0145065
647.951	0.0145396
648.030	0.0145269
648.108	0.0145368
648.186	0.0144702
648.264	0.0144706
648.342	0.0144769
648.420	0.0146195
648.498	0.0143886
648.576	0.0145927
648.655	0.0145438
648.733	0.0143832
648.811	0.0144705
648.889	0.0145684
648.967	0.0144337
649.045	0.0145274
649.123	0.0145020
649.201	0.0144047
649.280	0.0146396
649.358	0.0145303
649.436	0.0144527
649.514	0.0144955
649.592	0.0144943
649.670	0.0145812
649.748	0.0145490
649.826	0.0144623
649.905	0.0145628
649.983	0.0145126
650.061	0.0143878
650.139	0.0144837
650.217	0.0144773
650.295	0.0144699
650.373	0.0145670
650.451	0.0144507
650.530	0.0144515
650.608	0.0144675
650.686	0.0145537
650.764	0.0144461
650.842	0.0144092
650.920	0.0145165
650.998	0.0145067
651.076	0.0146181
651.155	0.0144859
651.233	0.0146843
651.311	0.0147021
651.389	0.0145811
651.467	0.0146368
651.545	0.0145435
651.623	0.0145838
651.701	0.0146323
651.780	0.0146277
651.858	0.0146526
651.936	0.0145891
652.014	0.0146588
652.092	0.0145438
652.170	0.0144406
652.248	0.0144865
652.326	0.0145085
652.405	0.0145528
652.483	0.0143922
652.561	0.0144064
652.639	0.0145164
652.717	0.0145358
652.795	0.0144337
652.873	0.0144415
652.951	0.0144780
653.030	0.0146281
653.108	0.0146342
653.186	0.0144447
653.264	0.0145057
653.342	0.0144814
653.420	0.0145321
653.498	0.0145795
653.576	0.0145947
653.655	0.0145152
653.733	0.0144823
653.811	0.0144331
653.889	0.0146078
653.967	0.0144773
654.045	0.0145105
654.123	0.0147305
654.201	0.0144800
654.280	0.0145309
654.358	0.0146008
654.436	0.0145823
654.514	0.0144759
654.592	0.0144890
654.670	0.0144846
654.748	0.0144934
654.826	0.0143951
654.905	0.0143073
654.983	0.0144432
655.061	0.0146249
655.139	0.0144449
655.217	0.0144411
655.295	0.0144737
655.373	0.0144501
655.451	0.0145723
655.530	0.0146608
655.608	0.0144550
655.686	0.0145722
655.764	0.0144449
655.842	0.0144669
655.920	0.0146029
655.998	0.0145232
656.076	0.0145467
656.155	0.0145547
656.233	0.0146204
656.311	0.0145464
656.389	0.0144243
656.467	0.0146245
656.545	0.0145813
656.623	0.0144714
656.701	0.0146017
656.780	0.0145457
656.858	0.0144547
656.936	0.0144530
657.014	0.0144876
657.092	0.0145775
657.170	0.0144430
657.248	0.0144083
657.326	0.0145478
657.405	0.0145784
657.483	0.0145540
657.561	0.0144663
657.639	0.0145471
657.717	0.0145702
657.795	0.0145042
657.873	0.0145113
657.951	0.0144878
658.030	0.0143590
658.108	0.0144941
658.186	0.0145144
658.264	0.0144529
658.342	0.0143255
658.420	0.0144073
658.498	0.0144455
658.576	0.0144488
658.655	0.0143713
658.733	0.0145146
658.811	0.0145242
658.889	0.0145222
658.967	0.0145026
659.045	0.0144724
659.123	0.0145841
659.201	0.0145213
659.280	0.0145883
659.358	0.0146376
659.436	0.0145687
659.514	0.0144248
659.592	0.0146510
659.670	0.0146695
659.748	0.0145011
659.826	0.0144938
659.905	0.0144582
659.983	0.0146095
660.061	0.0144513
660.139	0.0143822
660.217	0.0144190
660.295	0.0144482
660.373	0.0143438
660.451	0.0142846
660.530	0.0142748
660.608	0.0143371
660.686	0.0145082
660.764	0.0143239
660.842	0.0142982
660.920	0.0145126
660.998	0.0145017
661.076	0.0144501
661.155	0.0145631
661.233	0.0145332
661.311	0.0146975
661.389	0.0145125
661.467	0.0146633
661.545	0.0145808
661.623	0.0145625
661.701	0.0146831
661.780	0.0147658
661.858	0.0147076
661.936	0.0145901
662.014	0.0145698
662.092	0.0146809
662.170	0.0146632
662.248	0.0143063
662.326	0.0145305
662.405	0.0145232
662.483	0.0144430
662.561	0.0142462
662.639	0.0144799
662.717	0.0144460
662.795	0.0143156
662.873	0.0143912
662.951	0.0143446
663.030	0.0145253
663.108	0.0145811
663.186	0.0146097
663.264	0.0144477
663.342	0.0145625
663.420	0.0146144
663.498	0.0145621
663.576	0.0145210
663.655	0.0145454
663.733	0.0146758
663.811	0.0146400
663.889	0.0146313
663.967	0.0146954
664.045	0.0146982
664.123	0.0147669
664.201	0.0144529
664.280	0.0145974
664.358	0.0145591
664.436	0.0144492
664.514	0.0145928
664.592	0.0146172
664.670	0.0144330
664.748	0.0143503
664.826	0.0143109
664.905	0.0143323
664.983	0.0143251
665.061	0.0144817
665.139	0.0143488
665.217	0.0143608
665.295	0.0143534
665.373	0.0143256
665.451	0.0144257
665.530	0.0144378
665.608	0.0145418
665.686	0.0145121
665.764	0.0145404
665.842	0.0144623
665.920	0.0145428
665.998	0.0144960
666.076	0.0146358
666.155	0.0145318
666.233	0.0144573
666.311	0.0144942
666.389	0.0147034
666.467	0.0145509
666.545	0.0145054
666.623	0.0146371
666.701	0.0147035
666.780	0.0146463
666.858	0.0145271
666.936	0.0144715
667.014	0.0145100
667.092	0.0144764
667.170	0.0146268
667.248	0.0146114
667.326	0.0144829
667.405	0.0145475
667.483	0.0144926
667.561	0.0145718
667.639	0.0143430
667.717	0.0144350
667.795	0.0145947
667.873	0.0145130
667.951	0.0144765
668.030	0.0144862
668.108	0.0147689
668.186	0.0146650
668.264	0.0145507
668.342	0.0145293
668.420	0.0147148
668.498	0.0147094
668.576	0.0145927
668.655	0.0145554
668.733	0.0146721
668.811	0.0146825
668.889	0.0145891
668.967	0.0144920
669.045	0.0145259
669.123	0.0145221
669.201	0.0145245
669.280	0.0145336
669.358	0.0144224
669.436	0.0146482
669.514	0.0145210
669.592	0.0144868
669.670	0.0146086
669.748	0.0145814
669.826	0.0144302
669.905	0.0144525
669.983	0.0145217
670.061	0.0145304
670.139	0.0144541
670.217	0.0144854
670.295	0.0145916
670.373	0.0145868
670.451	0.0145428
670.530	0.0145758
670.608	0.0145171
670.686	0.0147053
670.764	0.0146690
670.842	0.0145176
670.920	0.0146362
670.998	0.0144455
671.076	0.0145689
671.155	0.0146211
671.233	0.0146464
671.311	0.0146152
671.389	0.0144603
671.467	0.0144678
671.545	0.0145435
671.623	0.0145875
671.701	0.0146502
671.780	0.0145168
671.858	0.0146118
671.936	0.0145283
672.014	0.0144195
672.092	0.0144433
672.170	0.0144163
672.248	0.0146040
672.326	0.0145869
672.405	0.0143789
672.483	0.0145663
672.561	0.0145333
672.639	0.0144420
672.717	0.0145716
672.795	0.0145867
672.873	0.0145492
672.951	0.0145581
673.030	0.0147515
673.108	0.0146613
673.186	0.0146024
673.264	0.0146332
673.342	0.0146210
673.420	0.0145909
673.498	0.0145621
673.576	0.0146119
673.655	0.0146138
673.733	0.0145520
673.811	0.0144964
673.889	0.0145676
673.967	0.0145652
674.045	0.0145193
674.123	0.0146171
674.201	0.0143722
674.280	0.0145273
674.358	0.0144074
674.436	0.0143644
674.514	0.0145561
674.592	0.0145667
674.670	0.0145507
674.748	0.0146908
674.826	0.0145506
674.905	0.0144922
674.983	0.0146115
675.061	0.0145257
675.139	0.0146518
675.217	0.0146848
675.295	0.0146035
675.373	0.0146172
675.451	0.0145811
675.530	0.0146560
675.608	0.0146230
675.686	0.0145000
675.764	0.0145245
675.842	0.0145482
675.920	0.0145217
675.998	0.0145116
676.076	0.0144943
676.155	0.0144350
676.233	0.0143810
676.311	0.0145321
676.389	0.0146246
676.467	0.0144855
676.545	0.0144730
676.623	0.0145322
676.701	0.0146573
676.780	0.0147124
676.858	0.0146854
676.936	0.0147863
677.014	0.0146352
677.092	0.0147964
677.170	0.0145281
677.248	0.0147446
677.326	0.0146287
677.405	0.0143906
677.483	0.0142549
677.561	0.0143318
677.639	0.0142704
677.717	0.0141486
677.795	0.0141342
677.873	0.0141778
677.951	0.0141560
678.030	0.0141628
678.108	0.0142338
678.186	0.0144600
678.264	0.0145710
678.342	0.0145081
678.420	0.0145390
678.498	0.0147325
678.576	0.0148699
678.655	0.0150208
678.733	0.0150364
678.811	0.0149802
678.889	0.0151825
678.967	0.0150633
679.045	0.0148974
679.123	0.0148089
679.201	0.0147256
679.280	0.0143980
679.358	0.0142352
679.436	0.0142261
679.514	0.0140706
679.592	0.0139719
679.670	0.0138927
679.748	0.0137510
679.826	0.0139227
679.905	0.0137816
679.983	0.0137617
680.061	0.0138493
680.139	0.0139894
680.217	0.0142290
680.295	0.0141672
680.373	0.0142750
680.451	0.0144003
680.530	0.0143530
680.608	0.0144497
680.686	0.0145556
680.764	0.0146942
680.842	0.0146101
680.920	0.0145500
680.998	0.0147039
681.076	0.0147958
681.155	0.0147382
681.233	0.0149407
681.311	0.0148986
681.389	0.0148682
681.467	0.0147796
681.545	0.0147587
681.623	0.0148847
681.701	0.0148234
681.780	0.0147514
681.858	0.0145962
681.936	0.0145165
682.014	0.0145501
682.092	0.0144753
682.170	0.0142487
682.248	0.0143406
682.326	0.0142183
682.405	0.0141531
682.483	0.0139840
682.561	0.0139541
682.639	0.0139840
682.717	0.0139059
682.795	0.0139739
682.873	0.0140389
682.951	0.0142670
683.030	0.0144281
683.108	0.0143260
683.186	0.0145453
683.264	0.0145218
683.342	0.0146702
683.420	0.0147099
683.498	0.0147191
683.576	0.0147900
683.655	0.0145705
683.733	0.0145516
683.811	0.0144506
683.889	0.0142551
683.967	0.0142305
684.045	0.0141106
684.123	0.0140688
684.201	0.0141108
684.280	0.0141139
684.358	0.0139756
684.436	0.0141730
684.514	0.0141231
684.592	0.0143018
684.670	0.0144512
684.748	0.0144349
684.826	0.0146439
684.905	0.0146624
684.983	0.0149265
685.061	0.0149725
685.139	0.0150106
685.217	0.0150407
685.295	0.0151345
685.373	0.0151807
685.451	0.0151387
685.530	0.0153333
685.608	0.0152949
685.686	0.0153516
685.764	0.0154266
685.842	0.0154047
685.920	0.0152239
685.998	0.0154313
686.076	0.0153522
686.155	0.0152438
686.233	0.0150223
686.311	0.0150868
686.389	0.0149454
686.467	0.0147749
686.545	0.0146986
686.623	0.0145498
686.701	0.0144544
686.780	0.0143091
686.858	0.0142047
686.936	0.0141000
687.014	0.0138817
687.092	0.0138309
687.170	0.0136952
687.248	0.0135732
687.326	0.0134978
687.405	0.0133174
687.483	0.0131062
687.561	0.0129579
687.639	0.0129472
687.717	0.0128600
687.795	0.0127211
687.873	0.0127704
687.951	0.0128100
688.030	0.0128046
688.108	0.0131148
688.186	0.0131962
688.264	0.0137125
688.342	0.0140284
688.420	0.0143565
688.498	0.0147741
688.576	0.0152697
688.655	0.0157997
688.733	0.0161118
688.811	0.0162686
688.889	0.0165993
688.967	0.0169528
689.045	0.0169447
689.123	0.0170542
689.201	0.0169563
689.280	0.0168156
689.358	0.0167051
689.436	0.0164336
689.514	0.0162434
689.592	0.0159441
689.670	0.0156928
689.748	0.0154645
689.826	0.0152116
689.905	0.0150221
689.983	0.0147604
690.061	0.0145197
690.139	0.0142147
690.217	0.0142131
690.295	0.0138453
690.373	0.0135976
690.451	0.0133225
690.530	0.0130524
690.608	0.0129217
690.686	0.0129810
690.764	0.0127265
690.842	0.0126550
690.920	0.0126193
690.998	0.0126688
691.076	0.0127163
691.155	0.0128206
691.233	0.0130163
691.311	0.0132373
691.389	0.0135921
691.467	0.0137608
691.545	0.0139638
691.623	0.0142413
691.701	0.0144831
691.780	0.0148366
691.858	0.0149895
691.936	0.0150756
692.014	0.0153693
692.092	0.0153693
692.170	0.0154605
692.248	0.0155523
692.326	0.0156416
692.405	0.0155829
692.483	0.0155511
692.561	0.0156197
692.639	0.0154993
692.717	0.0155481
692.795	0.0155274
692.873	0.0153734
692.951	0.0152354
693.030	0.0151833
693.108	0.0151172
693.186	0.0148785
693.264	0.0147710
693.342	0.0148351
693.420	0.0148408
693.498	0.0146711
693.576	0.0145844
693.655	0.0144185
693.733	0.0145150
693.811	0.0145264
693.889	0.0144341
693.967	0.0143336
694.045	0.0145027
694.123	0.0142846
694.201	0.0141988
694.280	0.0142833
694.358	0.0141094
694.436	0.0141038
694.514	0.0139944
694.592	0.0137534
694.670	0.0137896
694.748	0.0135861
694.826	0.0134117
694.905	0.0133104
694.983	0.0133298
695.061	0.0130580
695.139	0.0131599
695.217	0.0131091
695.295	0.0133608
695.373	0.0133302
695.451	0.0134443
695.530	0.0136205
695.608	0.0137254
695.686	0.0141105
695.764	0.0143232
695.842	0.0147489
695.920	0.0150623
695.998	0.0153954
696.076	0.0158507
696.155	0.0159284
696.233	0.0161884
696.311	0.0164252
696.389	0.0165338
696.467	0.0166500
696.545	0.0168667
696.623	0.0164351
696.701	0.0162607
696.780	0.0162552
696.858	0.0160764
696.936	0.0158717
697.014	0.0156336
697.092	0.0153564
697.170	0.0149899
697.248	0.0149293
697.326	0.0147545
697.405	0.0145066
697.483	0.0143151
697.561	0.0139498
697.639	0.0136876
697.717	0.0135368
697.795	0.0134114
697.873	0.0132503
697.951	0.0129684
698.030	0.0127431
698.108	0.0125106
698.186	0.0125429
698.264	0.0123848
698.342	0.0123106
698.420	0.0124276
698.498	0.0123898
698.576	0.0127514
698.655	0.0128036
698.733	0.0130176
698.811	0.0133422
698.889	0.0135356
698.967	0.0138936
699.045	0.0138911
699.123	0.0141920
699.201	0.0144095
699.280	0.0144377
699.358	0.0144017
699.436	0.0145146
699.514	0.0145446
699.592	0.0146349
699.670	0.0148104
699.748	0.0150381
699.826	0.0148987
699.905	0.0150147
699.983	0.0152149
700.061	0.0154038
700.139	0.0155856
700.217	0.0156738
700.295	0.0159076
700.373	0.0160117
700.451	0.0161856
700.530	0.0162421
700.608	0.0164525
700.686	0.0163755
700.764	0.0164088
700.842	0.0163970
700.920	0.0159179
700.998	0.0158237
701.076	0.0155813
701.155	0.0155669
701.233	0.0152090
701.311	0.0148888
701.389	0.0148235
701.467	0.0147434
701.545	0.0143365
701.623	0.0142105
701.701	0.0141100
701.780	0.0139005
701.858	0.0137697
701.936	0.0136335
702.014	0.0134799
702.092	0.0132662
702.170	0.0131811
702.248	0.0129008
702.326	0.0129785
702.405	0.0126172
702.483	0.0125613
702.561	0.0127581
702.639	0.0126309
702.717	0.0127190
702.795	0.0129076
702.873	0.0131181
702.951	0.0132835
703.030	0.0135169
703.108	0.0138461
703.186	0.0140273
703.264	0.0142907
703.342	0.0144935
703.420	0.0144975
703.498	0.0144894
703.576	0.0144738
703.655	0.0144971
703.733	0.0144694
703.811	0.0144177
703.889	0.0144862
703.967	0.0144689
704.045	0.0143812
704.123	0.0144373
704.201	0.0146378
704.280	0.0148681
704.358	0.0149759
704.436	0.0151539
704.514	0.0154243
704.592	0.0154749
704.670	0.0156765
704.748	0.0157339
704.826	0.0155996
704.905	0.0156580
704.983	0.0153317
705.061	0.0153167
705.139	0.0152013
705.217	0.0149294
705.295	0.0148958
705.373	0.0148479
705.451	0.0148077
705.530	0.0145799
705.608	0.0145044
705.686	0.0144111
705.764	0.0142852
705.842	0.0144553
705.920	0.0143309
705.998	0.0144126
706.076	0.0143687
706.155	0.0143322
706.233	0.0143055
706.311	0.0143822
706.389	0.0142258
706.467	0.0142792
706.545	0.0143894
706.623	0.0145738
706.701	0.0143281
706.780	0.0144643
706.858	0.0143642
706.936	0.0142773
707.014	0.0144508
707.092	0.0144485
707.170	0.0142613
707.248	0.0141903
707.326	0.0141995
707.405	0.0141307
707.483	0.0140562
707.561	0.0141225
707.639	0.0140187
707.717	0.0140268
707.795	0.0139004
707.873	0.0139912
707.951	0.0140947
708.030	0.0141660
708.108	0.0140297
708.186	0.0141811
708.264	0.0140630
708.342	0.0140736
708.420	0.0139259
708.498	0.0138861
708.576	0.0138841
708.655	0.0138550
708.733	0.0137252
708.811	0.0138357
708.889	0.0139158
708.967	0.0140014
709.045	0.0144392
709.123	0.0146548
709.201	0.0148915
709.280	0.0152929
709.358	0.0155156
709.436	0.0156544
709.514	0.0159098
709.592	0.0160004
709.670	0.0160033
709.748	0.0159612
709.826	0.0158542
709.905	0.0157468
709.983	0.0155315
710.061	0.0154262
710.139	0.0152095
710.217	0.0151099
710.295	0.0150399
710.373	0.0147743
710.451	0.0148492
710.530	0.0147769
710.608	0.0145605
710.686	0.0144893
710.764	0.0146365
710.842	0.0146082
710.920	0.0145853
710.998	0.0144719
711.076	0.0144633
711.155	0.0142529
711.233	0.0143788
711.311	0.0141080
711.389	0.0140443
711.467	0.0139347
711.545	0.0138470
711.623	0.0138536
711.701	0.0137744
711.780	0.0137273
711.858	0.0138044
711.936	0.0139082
712.014	0.0138471
712.092	0.0139273
712.170	0.0140199
712.248	0.0141299
712.326	0.0141077
712.405	0.0141262
712.483	0.0141842
712.561	0.0141977
712.639	0.0141603
712.717	0.0139371
712.795	0.0138678
712.873	0.0137657
712.951	0.0137510
713.030	0.0136322
713.108	0.0137685
713.186	0.0136644
713.264	0.0137400
713.342	0.0138448
713.420	0.0137903
713.498	0.0138992
713.576	0.0142635
713.655	0.0143821
713.733	0.0144901
713.811	0.0148444
713.889	0.0150356
713.967	0.0152169
714.045	0.0154184
714.123	0.0156726
714.201	0.0155490
714.280	0.0155865
714.358	0.0156306
714.436	0.0154759
714.514	0.0154487
714.592	0.0153976
714.670	0.0152250
714.748	0.0150882
714.826	0.0150785
714.905	0.0150708
714.983	0.0149780
715.061	0.0150131
715.139	0.0149706
715.217	0.0149926
715.295	0.0149244
715.373	0.0148220
715.451	0.0148222
715.530	0.0148506
715.608	0.0148438
715.686	0.0147477
715.764	0.0146146
715.842	0.0144851
715.920	0.0145235
715.998	0.0146835
716.076	0.0144004
716.155	0.0143523
716.233	0.0144155
716.311	0.0144979
716.389	0.0142892
716.467	0.0143076
716.545	0.0143599
716.623	0.0142556
716.701	0.0143359
716.780	0.0144763
716.858	0.0144535
716.936	0.0143732
717.014	0.0143038
717.092	0.0141515
717.170	0.0140693
717.248	0.0142229
717.326	0.0141632
717.405	0.0140407
717.483	0.0140885
717.561	0.0142707
717.639	0.0144402
717.717	0.0142625
717.795	0.0144579
717.873	0.0146355
717.951	0.0148029
718.030	0.0148230
718.108	0.0148580
718.186	0.0148790
718.264	0.0150900
718.342	0.0149951
718.420	0.0148796
718.498	0.0148251
718.576	0.0147493
718.655	0.0144855
718.733	0.0143340
718.811	0.0141875
718.889	0.0140219
718.967	0.0139172
719.045	0.0139208
719.123	0.0139839
719.201	0.0139452
719.280	0.0140707
719.358	0.0141329
719.436	0.0142634
719.514	0.0142330
719.592	0.0143518
719.670	0.0144084
719.748	0.0146039
719.826	0.0147374
719.905	0.0148547
719.983	0.0147905
720.061	0.0148472
720.139	0.0148314
720.217	0.0147893
720.295	0.0146855
720.373	0.0145396
720.451	0.0146494
720.530	0.0143797
720.608	0.0143764
720.686	0.0144046
720.764	0.0141288
720.842	0.0141022
720.920	0.0139780
720.998	0.0139214
721.076	0.0137772
721.155	0.0139670
721.233	0.0140309
721.311	0.0137867
721.389	0.0141920
721.467	0.0142074
721.545	0.0142086
721.623	0.0142599
721.701	0.0142404
721.780	0.0144067
721.858	0.0144739
721.936	0.0145794
722.014	0.0146955
722.092	0.0148421
722.170	0.0147183
722.248	0.0148302
722.326	0.0150877
722.405	0.0151632
722.483	0.0150613
722.561	0.0150902
722.639	0.0151163
722.717	0.0151246
722.795	0.0152709
722.873	0.0150320
722.951	0.0148534
723.030	0.0149058
723.108	0.0149922
723.186	0.0145901
723.264	0.0145566
723.342	0.0145538
723.420	0.0144505
723.498	0.0142223
723.576	0.0143579
723.655	0.0143220
723.733	0.0142694
723.811	0.0142749
723.889	0.0142548
723.967	0.0142263
724.045	0.0141377
724.123	0.0141052
724.201	0.0141801
724.280	0.0142451
724.358	0.0141529
724.436	0.0139880
724.514	0.0141211
724.592	0.0140823
724.670	0.0139088
724.748	0.0140837
724.826	0.0139218
724.905	0.0141840
724.983	0.0141945
725.061	0.0141730
725.139	0.0143700
725.217	0.0143401
725.295	0.0143893
725.373	0.0142747
725.451	0.0144764
725.530	0.0146136
725.608	0.0145273
725.686	0.0143704
