05/20/2022	16:25:32	Ver.	4.1	UNKNOWN
Optical Delay	639.982744	Delta X		0.078125	Sweeps	1	Scan Rate	0/0
Coordinates	Axis 1	NaN	Axis 2	NaN	Axis 3	NaN	Axis 4	NaN	Axis 5	NaN	Axis 6	0.000000
TX Power	0.000000	RX Power	0.000000

639.983	0.0146931
640.061	0.0146631
640.139	0.0147190
640.217	0.0144349
640.295	0.0145867
640.373	0.0145654
640.451	0.0146975
640.530	0.0146617
640.608	0.0147146
640.686	0.0145803
640.764	0.0145716
640.842	0.0146547
640.920	0.0145647
640.998	0.0146570
641.076	0.0146501
641.155	0.0146703
641.233	0.0146088
641.311	0.0146545
641.389	0.0145747
641.467	0.0147320
641.545	0.0147433
641.623	0.0145831
641.701	0.0145872
641.780	0.0146390
641.858	0.0146523
641.936	0.0145526
642.014	0.0147062
642.092	0.0145399
642.170	0.0145412
642.248	0.0146649
642.326	0.0145858
642.405	0.0146975
642.483	0.0146724
642.561	0.0146826
642.639	0.0145229
642.717	0.0146770
642.795	0.0146887
642.873	0.0146329
642.951	0.0146846
643.030	0.0147020
643.108	0.0147359
643.186	0.0148657
643.264	0.0146333
643.342	0.0145842
643.420	0.0147009
643.498	0.0147129
643.576	0.0147445
643.655	0.0147139
643.733	0.0146960
643.811	0.0147071
643.889	0.0147227
643.967	0.0148077
644.045	0.0148273
644.123	0.0146730
644.201	0.0147874
644.280	0.0147517
644.358	0.0148145
644.436	0.0148126
644.514	0.0146497
644.592	0.0147121
644.670	0.0146696
644.748	0.0148141
644.826	0.0148183
644.905	0.0147758
644.983	0.0147768
645.061	0.0147821
645.139	0.0147987
645.217	0.0147216
645.295	0.0148247
645.373	0.0148132
645.451	0.0148217
645.530	0.0149049
645.608	0.0148645
645.686	0.0147935
645.764	0.0149047
645.842	0.0149425
645.920	0.0148218
645.998	0.0149250
646.076	0.0147980
646.155	0.0147623
646.233	0.0147762
646.311	0.0148489
646.389	0.0146637
646.467	0.0147600
646.545	0.0148615
646.623	0.0147820
646.701	0.0148031
646.780	0.0147580
646.858	0.0148859
646.936	0.0148204
647.014	0.0147019
647.092	0.0148368
647.170	0.0148652
647.248	0.0148421
647.326	0.0148002
647.405	0.0148405
647.483	0.0148048
647.561	0.0146764
647.639	0.0147892
647.717	0.0147453
647.795	0.0147218
647.873	0.0147130
647.951	0.0146698
648.030	0.0145926
648.108	0.0147564
648.186	0.0149349
648.264	0.0148286
648.342	0.0147153
648.420	0.0147089
648.498	0.0146410
648.576	0.0147393
648.655	0.0147302
648.733	0.0146724
648.811	0.0147008
648.889	0.0147598
648.967	0.0146943
649.045	0.0146529
649.123	0.0146302
649.201	0.0147395
649.280	0.0146963
649.358	0.0147296
649.436	0.0147237
649.514	0.0147675
649.592	0.0147005
649.670	0.0148121
649.748	0.0147388
649.826	0.0146988
649.905	0.0149039
649.983	0.0148576
650.061	0.0148789
650.139	0.0146017
650.217	0.0147697
650.295	0.0148531
650.373	0.0148443
650.451	0.0147157
650.530	0.0145807
650.608	0.0147900
650.686	0.0146249
650.764	0.0145844
650.842	0.0145488
650.920	0.0147644
650.998	0.0146190
651.076	0.0146008
651.155	0.0146986
651.233	0.0147104
651.311	0.0145513
651.389	0.0147041
651.467	0.0147618
651.545	0.0146982
651.623	0.0148219
651.701	0.0146557
651.780	0.0146950
651.858	0.0146275
651.936	0.0147223
652.014	0.0146996
652.092	0.0146236
652.170	0.0147077
652.248	0.0146835
652.326	0.0147098
652.405	0.0146619
652.483	0.0147943
652.561	0.0147266
652.639	0.0147704
652.717	0.0147835
652.795	0.0148011
652.873	0.0147374
652.951	0.0147534
653.030	0.0146214
653.108	0.0146973
653.186	0.0147423
653.264	0.0146864
653.342	0.0145753
653.420	0.0146457
653.498	0.0146458
653.576	0.0147164
653.655	0.0146449
653.733	0.0146878
653.811	0.0145837
653.889	0.0147370
653.967	0.0147756
654.045	0.0145746
654.123	0.0144738
654.201	0.0147157
654.280	0.0146252
654.358	0.0145238
654.436	0.0145161
654.514	0.0145152
654.592	0.0146882
654.670	0.0146893
654.748	0.0146619
654.826	0.0147532
654.905	0.0146194
654.983	0.0146807
655.061	0.0145477
655.139	0.0146825
655.217	0.0144878
655.295	0.0146019
655.373	0.0145960
655.451	0.0146383
655.530	0.0146146
655.608	0.0147443
655.686	0.0146203
655.764	0.0146295
655.842	0.0148813
655.920	0.0147321
655.998	0.0148068
656.076	0.0145422
656.155	0.0146272
656.233	0.0147691
656.311	0.0147308
656.389	0.0145647
656.467	0.0146098
656.545	0.0146439
656.623	0.0146950
656.701	0.0148151
656.780	0.0148384
656.858	0.0146597
656.936	0.0145914
657.014	0.0147446
657.092	0.0147542
657.170	0.0147733
657.248	0.0148146
657.326	0.0147881
657.405	0.0147075
657.483	0.0146418
657.561	0.0147799
657.639	0.0147507
657.717	0.0146877
657.795	0.0148139
657.873	0.0148322
657.951	0.0147971
658.030	0.0147961
658.108	0.0148322
658.186	0.0148367
658.264	0.0148082
658.342	0.0147051
658.420	0.0146354
658.498	0.0147347
658.576	0.0147488
658.655	0.0146438
658.733	0.0145831
658.811	0.0146821
658.889	0.0145598
658.967	0.0145229
659.045	0.0143842
659.123	0.0144524
659.201	0.0145006
659.280	0.0145934
659.358	0.0146025
659.436	0.0146564
659.514	0.0145853
659.592	0.0145654
659.670	0.0147215
659.748	0.0148086
659.826	0.0147178
659.905	0.0147309
659.983	0.0148821
660.061	0.0148707
660.139	0.0149377
660.217	0.0149226
660.295	0.0149088
660.373	0.0147479
660.451	0.0147443
660.530	0.0147527
660.608	0.0147620
660.686	0.0145581
660.764	0.0146832
660.842	0.0146690
660.920	0.0146191
660.998	0.0145164
661.076	0.0145689
661.155	0.0146093
661.233	0.0145554
661.311	0.0145791
661.389	0.0145888
661.467	0.0146722
661.545	0.0147255
661.623	0.0147191
661.701	0.0147195
661.780	0.0147125
661.858	0.0146205
661.936	0.0147349
662.014	0.0146670
662.092	0.0147450
662.170	0.0147038
662.248	0.0147143
662.326	0.0147968
662.405	0.0148770
662.483	0.0149100
662.561	0.0148709
662.639	0.0148495
662.717	0.0147986
662.795	0.0147417
662.873	0.0147688
662.951	0.0146983
663.030	0.0147701
663.108	0.0146023
663.186	0.0146828
663.264	0.0146857
663.342	0.0146087
663.420	0.0145006
663.498	0.0146117
663.576	0.0147311
663.655	0.0145971
663.733	0.0144595
663.811	0.0144944
663.889	0.0146655
663.967	0.0146401
664.045	0.0146265
664.123	0.0146202
664.201	0.0146738
664.280	0.0147096
664.358	0.0148003
664.436	0.0147000
664.514	0.0147813
664.592	0.0149274
664.670	0.0147762
664.748	0.0147237
664.826	0.0147785
664.905	0.0146859
664.983	0.0147404
665.061	0.0147386
665.139	0.0148373
665.217	0.0146240
665.295	0.0145850
665.373	0.0145821
665.451	0.0146321
665.530	0.0145790
665.608	0.0145211
665.686	0.0145589
665.764	0.0146601
665.842	0.0146519
665.920	0.0146364
665.998	0.0146288
666.076	0.0146660
666.155	0.0147346
666.233	0.0148031
666.311	0.0147099
666.389	0.0145787
666.467	0.0148706
666.545	0.0147104
666.623	0.0147629
666.701	0.0147609
666.780	0.0147787
666.858	0.0147649
666.936	0.0148212
667.014	0.0148333
667.092	0.0148657
667.170	0.0146700
667.248	0.0146947
667.326	0.0146990
667.405	0.0147689
667.483	0.0146858
667.561	0.0146626
667.639	0.0146950
667.717	0.0146796
667.795	0.0147044
667.873	0.0147179
667.951	0.0147386
668.030	0.0148207
668.108	0.0147343
668.186	0.0145967
668.264	0.0147063
668.342	0.0146333
668.420	0.0147114
668.498	0.0147516
668.576	0.0148151
668.655	0.0146407
668.733	0.0147379
668.811	0.0148632
668.889	0.0148650
668.967	0.0146194
669.045	0.0148699
669.123	0.0147811
669.201	0.0146218
669.280	0.0147943
669.358	0.0146521
669.436	0.0146585
669.514	0.0147812
669.592	0.0145693
669.670	0.0147580
669.748	0.0146429
669.826	0.0147056
669.905	0.0146564
669.983	0.0147211
670.061	0.0148066
670.139	0.0148331
670.217	0.0147331
670.295	0.0146496
670.373	0.0147710
670.451	0.0148205
670.530	0.0147582
670.608	0.0146721
670.686	0.0146380
670.764	0.0147322
670.842	0.0147159
670.920	0.0147191
670.998	0.0147267
671.076	0.0147005
671.155	0.0146880
671.233	0.0147276
671.311	0.0148380
671.389	0.0147864
671.467	0.0148198
671.545	0.0146144
671.623	0.0147292
671.701	0.0148608
671.780	0.0147347
671.858	0.0147228
671.936	0.0147005
672.014	0.0146853
672.092	0.0147327
672.170	0.0147188
672.248	0.0147038
672.326	0.0147212
672.405	0.0147707
672.483	0.0146452
672.561	0.0145118
672.639	0.0145370
672.717	0.0146103
672.795	0.0145715
672.873	0.0146407
672.951	0.0147389
673.030	0.0144638
673.108	0.0145805
673.186	0.0147186
673.264	0.0145431
673.342	0.0145433
673.420	0.0145799
673.498	0.0145106
673.576	0.0146790
673.655	0.0147295
673.733	0.0145828
673.811	0.0146362
673.889	0.0145186
673.967	0.0146805
674.045	0.0147417
674.123	0.0145795
674.201	0.0145620
674.280	0.0146222
674.358	0.0145790
674.436	0.0146133
674.514	0.0146713
674.592	0.0146427
674.670	0.0145643
674.748	0.0146897
674.826	0.0145325
674.905	0.0144026
674.983	0.0145482
675.061	0.0145470
675.139	0.0143713
675.217	0.0143053
675.295	0.0144070
675.373	0.0143353
675.451	0.0143634
675.530	0.0144071
675.608	0.0143813
675.686	0.0146320
675.764	0.0146563
675.842	0.0146758
675.920	0.0145030
675.998	0.0147745
676.076	0.0147271
676.155	0.0145916
676.233	0.0146267
676.311	0.0148123
676.389	0.0148141
676.467	0.0147889
676.545	0.0147981
676.623	0.0147674
676.701	0.0146690
676.780	0.0145721
676.858	0.0144540
676.936	0.0145240
677.014	0.0143491
677.092	0.0142944
677.170	0.0143445
677.248	0.0141970
677.326	0.0141381
677.405	0.0141974
677.483	0.0141769
677.561	0.0142640
677.639	0.0143654
677.717	0.0145718
677.795	0.0144669
677.873	0.0147825
677.951	0.0149360
678.030	0.0150852
678.108	0.0151874
678.186	0.0151809
678.264	0.0153012
678.342	0.0154939
678.420	0.0154356
678.498	0.0152225
678.576	0.0154378
678.655	0.0153262
678.733	0.0148623
678.811	0.0148464
678.889	0.0146493
678.967	0.0146133
679.045	0.0145338
679.123	0.0143894
679.201	0.0140872
679.280	0.0139957
679.358	0.0141050
679.436	0.0140102
679.514	0.0139473
679.592	0.0140910
679.670	0.0140943
679.748	0.0142493
679.826	0.0143723
679.905	0.0144188
679.983	0.0145717
680.061	0.0145892
680.139	0.0147765
680.217	0.0148218
680.295	0.0149862
680.373	0.0150681
680.451	0.0149905
680.530	0.0150472
680.608	0.0152870
680.686	0.0152986
680.764	0.0152813
680.842	0.0152255
680.920	0.0153595
680.998	0.0154063
681.076	0.0153008
681.155	0.0151247
681.233	0.0150637
681.311	0.0150381
681.389	0.0150324
681.467	0.0149412
681.545	0.0148171
681.623	0.0148180
681.701	0.0147872
681.780	0.0145728
681.858	0.0145349
681.936	0.0145097
682.014	0.0143069
682.092	0.0143530
682.170	0.0142654
682.248	0.0142810
682.326	0.0142722
682.405	0.0141938
682.483	0.0143205
682.561	0.0142988
682.639	0.0142824
682.717	0.0145579
682.795	0.0146055
682.873	0.0145680
682.951	0.0147670
683.030	0.0149923
683.108	0.0149393
683.186	0.0147301
683.264	0.0148182
683.342	0.0148553
683.420	0.0147604
683.498	0.0147385
683.576	0.0147285
683.655	0.0145232
683.733	0.0144636
683.811	0.0145159
683.889	0.0144233
683.967	0.0144257
684.045	0.0145006
684.123	0.0143041
684.201	0.0144519
684.280	0.0146539
684.358	0.0145325
684.436	0.0148665
684.514	0.0149995
684.592	0.0149846
684.670	0.0150912
684.748	0.0150298
684.826	0.0151832
684.905	0.0151975
684.983	0.0152524
685.061	0.0152016
685.139	0.0151067
685.217	0.0152280
685.295	0.0153487
685.373	0.0152662
685.451	0.0153456
685.530	0.0153720
685.608	0.0152552
685.686	0.0153684
685.764	0.0152775
685.842	0.0153065
685.920	0.0151318
685.998	0.0152142
686.076	0.0151156
686.155	0.0149583
686.233	0.0148432
686.311	0.0147904
686.389	0.0147436
686.467	0.0146139
686.545	0.0144997
686.623	0.0142673
686.701	0.0140537
686.780	0.0140661
686.858	0.0140189
686.936	0.0138816
687.014	0.0135416
687.092	0.0135030
687.170	0.0133992
687.248	0.0134488
687.326	0.0131824
687.405	0.0130743
687.483	0.0131155
687.561	0.0132731
687.639	0.0130849
687.717	0.0131068
687.795	0.0134299
687.873	0.0136235
687.951	0.0138612
688.030	0.0139793
688.108	0.0143005
688.186	0.0147800
688.264	0.0149519
688.342	0.0154450
688.420	0.0158553
688.498	0.0160770
688.576	0.0163286
688.655	0.0167171
688.733	0.0168221
688.811	0.0170014
688.889	0.0170264
688.967	0.0169248
689.045	0.0169724
689.123	0.0168654
689.201	0.0167322
689.280	0.0165300
689.358	0.0163146
689.436	0.0160261
689.514	0.0158201
689.592	0.0156504
689.670	0.0151841
689.748	0.0150126
689.826	0.0146893
689.905	0.0144558
689.983	0.0143295
690.061	0.0139218
690.139	0.0137605
690.217	0.0134807
690.295	0.0133249
690.373	0.0129708
690.451	0.0129006
690.530	0.0128896
690.608	0.0126637
690.686	0.0126506
690.764	0.0128086
690.842	0.0129220
690.920	0.0126630
690.998	0.0128835
691.076	0.0131579
691.155	0.0133670
691.233	0.0134355
691.311	0.0137553
691.389	0.0139952
691.467	0.0141580
691.545	0.0143275
691.623	0.0145541
691.701	0.0147683
691.780	0.0148598
691.858	0.0150797
691.936	0.0152990
692.014	0.0153963
692.092	0.0157190
692.170	0.0158643
692.248	0.0159209
692.326	0.0160223
692.405	0.0159031
692.483	0.0161564
692.561	0.0160661
692.639	0.0161315
692.717	0.0160902
692.795	0.0160068
692.873	0.0159448
692.951	0.0156892
693.030	0.0154646
693.108	0.0150558
693.186	0.0149800
693.264	0.0147128
693.342	0.0144873
693.420	0.0141383
693.498	0.0140652
693.576	0.0138881
693.655	0.0138581
693.733	0.0139868
693.811	0.0137923
693.889	0.0138946
693.967	0.0139021
694.045	0.0140534
694.123	0.0141002
694.201	0.0141625
694.280	0.0143119
694.358	0.0143990
694.436	0.0144592
694.514	0.0142939
694.592	0.0144641
694.670	0.0143179
694.748	0.0141391
694.826	0.0138295
694.905	0.0138007
694.983	0.0137911
695.061	0.0135716
695.139	0.0135096
695.217	0.0134220
695.295	0.0134257
695.373	0.0134797
695.451	0.0136829
695.530	0.0137611
695.608	0.0140718
695.686	0.0143597
695.764	0.0147058
695.842	0.0150699
695.920	0.0154153
695.998	0.0157800
696.076	0.0161630
696.155	0.0163325
696.233	0.0164327
696.311	0.0165559
696.389	0.0166689
696.467	0.0167069
696.545	0.0165876
696.623	0.0165824
696.701	0.0164141
696.780	0.0161433
696.858	0.0159743
696.936	0.0157020
697.014	0.0154707
697.092	0.0152431
697.170	0.0150014
697.248	0.0145930
697.326	0.0144423
697.405	0.0141919
697.483	0.0138600
697.561	0.0135113
697.639	0.0135635
697.717	0.0134203
697.795	0.0130981
697.873	0.0129437
697.951	0.0128542
698.030	0.0127037
698.108	0.0126287
698.186	0.0125845
698.264	0.0125535
698.342	0.0124306
698.420	0.0127127
698.498	0.0125229
698.576	0.0127203
698.655	0.0129955
698.733	0.0130721
698.811	0.0133903
698.889	0.0135730
698.967	0.0139723
699.045	0.0141949
699.123	0.0145434
699.201	0.0147651
699.280	0.0149590
699.358	0.0152710
699.436	0.0155094
699.514	0.0155687
699.592	0.0157262
699.670	0.0157694
699.748	0.0157929
699.826	0.0159055
699.905	0.0159904
699.983	0.0160863
700.061	0.0160969
700.139	0.0162058
700.217	0.0161835
700.295	0.0162043
700.373	0.0163157
700.451	0.0160841
700.530	0.0160505
700.608	0.0161839
700.686	0.0159420
700.764	0.0159850
700.842	0.0156772
700.920	0.0156121
700.998	0.0154455
701.076	0.0152883
701.155	0.0150174
701.233	0.0148462
701.311	0.0147791
701.389	0.0146267
701.467	0.0145908
701.545	0.0142885
701.623	0.0143132
701.701	0.0140910
701.780	0.0139160
701.858	0.0137681
701.936	0.0136556
702.014	0.0136723
702.092	0.0135102
702.170	0.0133678
702.248	0.0134474
702.326	0.0133494
702.405	0.0133781
702.483	0.0132599
702.561	0.0132876
702.639	0.0133821
702.717	0.0136613
702.795	0.0135554
702.873	0.0136384
702.951	0.0136712
703.030	0.0138805
703.108	0.0139923
703.186	0.0139801
703.264	0.0141816
703.342	0.0143179
703.420	0.0144284
703.498	0.0146671
703.576	0.0146217
703.655	0.0147015
703.733	0.0147773
703.811	0.0148052
703.889	0.0149282
703.967	0.0150328
704.045	0.0151614
704.123	0.0153342
704.201	0.0154073
704.280	0.0153470
704.358	0.0154823
704.436	0.0156556
704.514	0.0158197
704.592	0.0157148
704.670	0.0157075
704.748	0.0159268
704.826	0.0157167
704.905	0.0157352
704.983	0.0158176
705.061	0.0156004
705.139	0.0156419
705.217	0.0155921
705.295	0.0153403
705.373	0.0153513
705.451	0.0152563
705.530	0.0151945
705.608	0.0149451
705.686	0.0148944
705.764	0.0147215
705.842	0.0144444
705.920	0.0142905
705.998	0.0141018
706.076	0.0140959
706.155	0.0139608
706.233	0.0137805
706.311	0.0136643
706.389	0.0137233
706.467	0.0136147
706.545	0.0136046
706.623	0.0135594
706.701	0.0138533
706.780	0.0139748
706.858	0.0140172
706.936	0.0143207
707.014	0.0142142
707.092	0.0143947
707.170	0.0144785
707.248	0.0144772
707.326	0.0147120
707.405	0.0146568
707.483	0.0148302
707.561	0.0148180
707.639	0.0149660
707.717	0.0149812
707.795	0.0151006
707.873	0.0150023
707.951	0.0149745
708.030	0.0150807
708.108	0.0150879
708.186	0.0150096
708.264	0.0148878
708.342	0.0148228
708.420	0.0146656
708.498	0.0144895
708.576	0.0143832
708.655	0.0142008
708.733	0.0139319
708.811	0.0138681
708.889	0.0135735
708.967	0.0137237
709.045	0.0138614
709.123	0.0139019
709.201	0.0139787
709.280	0.0143003
709.358	0.0147198
709.436	0.0150392
709.514	0.0152561
709.592	0.0155324
709.670	0.0157711
709.748	0.0159977
709.826	0.0160796
709.905	0.0160455
709.983	0.0162254
710.061	0.0160793
710.139	0.0159377
710.217	0.0158644
710.295	0.0157387
710.373	0.0157820
710.451	0.0154115
710.530	0.0152428
710.608	0.0153542
710.686	0.0151984
710.764	0.0150883
710.842	0.0148547
710.920	0.0150279
710.998	0.0149722
711.076	0.0147782
711.155	0.0147177
711.233	0.0146497
711.311	0.0145741
711.389	0.0144243
711.467	0.0143647
711.545	0.0140923
711.623	0.0140986
711.701	0.0140098
711.780	0.0138633
711.858	0.0138549
711.936	0.0138116
712.014	0.0139477
712.092	0.0140190
712.170	0.0139293
712.248	0.0141808
712.326	0.0142297
712.405	0.0144705
712.483	0.0145157
712.561	0.0145696
712.639	0.0146396
712.717	0.0147520
712.795	0.0146355
712.873	0.0145846
712.951	0.0146040
713.030	0.0145197
713.108	0.0144118
713.186	0.0142590
713.264	0.0141118
713.342	0.0140666
713.420	0.0141305
713.498	0.0142368
713.576	0.0142132
713.655	0.0143562
713.733	0.0146155
713.811	0.0147446
713.889	0.0148904
713.967	0.0150567
714.045	0.0151688
714.123	0.0151817
714.201	0.0153773
714.280	0.0154095
714.358	0.0152924
714.436	0.0153021
714.514	0.0149500
714.592	0.0150786
714.670	0.0149722
714.748	0.0148712
714.826	0.0149179
714.905	0.0149025
714.983	0.0149409
715.061	0.0151769
715.139	0.0153164
715.217	0.0155225
715.295	0.0153654
715.373	0.0155824
715.451	0.0155247
715.530	0.0155934
715.608	0.0153024
715.686	0.0152248
715.764	0.0152362
715.842	0.0149281
715.920	0.0146429
715.998	0.0146706
716.076	0.0146055
716.155	0.0143708
716.233	0.0141960
716.311	0.0140865
716.389	0.0141081
716.467	0.0140694
716.545	0.0139949
716.623	0.0139324
716.701	0.0139099
716.780	0.0138394
716.858	0.0139201
716.936	0.0139013
717.014	0.0137552
717.092	0.0137445
717.170	0.0139172
717.248	0.0139541
717.326	0.0138818
717.405	0.0139178
717.483	0.0141178
717.561	0.0142049
717.639	0.0142525
717.717	0.0142963
717.795	0.0144611
717.873	0.0145499
717.951	0.0146506
718.030	0.0146774
718.108	0.0147879
718.186	0.0147784
718.264	0.0147907
718.342	0.0148929
718.420	0.0145916
718.498	0.0147204
718.576	0.0144598
718.655	0.0145585
718.733	0.0143919
718.811	0.0143398
718.889	0.0143745
718.967	0.0144479
719.045	0.0144652
719.123	0.0145819
719.201	0.0146579
719.280	0.0145718
719.358	0.0144580
719.436	0.0148002
719.514	0.0148878
719.592	0.0148193
719.670	0.0150066
719.748	0.0149850
719.826	0.0150751
719.905	0.0151777
719.983	0.0151221
720.061	0.0151424
720.139	0.0152696
720.217	0.0152438
720.295	0.0151610
720.373	0.0151016
720.451	0.0149741
720.530	0.0148033
720.608	0.0145223
720.686	0.0145233
720.764	0.0144206
720.842	0.0142467
720.920	0.0141525
720.998	0.0140384
721.076	0.0140327
721.155	0.0139873
721.233	0.0140308
721.311	0.0140850
721.389	0.0141166
721.467	0.0141872
721.545	0.0141627
721.623	0.0144893
721.701	0.0145120
721.780	0.0145728
721.858	0.0148255
721.936	0.0149406
722.014	0.0150407
722.092	0.0149308
722.170	0.0150737
722.248	0.0150491
722.326	0.0149640
722.405	0.0149856
722.483	0.0150312
722.561	0.0148790
722.639	0.0149021
722.717	0.0148672
722.795	0.0148695
722.873	0.0147006
722.951	0.0147144
723.030	0.0147757
723.108	0.0146479
723.186	0.0147366
723.264	0.0148467
723.342	0.0149760
723.420	0.0150672
723.498	0.0151998
723.576	0.0150996
723.655	0.0150875
723.733	0.0151446
723.811	0.0151785
723.889	0.0151682
723.967	0.0150934
724.045	0.0150505
724.123	0.0150372
724.201	0.0149071
724.280	0.0148827
724.358	0.0146606
724.436	0.0144850
724.514	0.0144115
724.592	0.0144535
724.670	0.0144083
724.748	0.0144620
724.826	0.0143370
724.905	0.0143775
724.983	0.0143423
725.061	0.0142482
725.139	0.0143230
725.217	0.0143006
725.295	0.0140685
725.373	0.0142400
725.451	0.0142153
725.530	0.0141992
725.608	0.0142384
725.686	0.0142316
