05/20/2022	16:26:17	Ver.	4.1	UNKNOWN
Optical Delay	639.982744	Delta X		0.078125	Sweeps	1	Scan Rate	0/0
Coordinates	Axis 1	NaN	Axis 2	NaN	Axis 3	NaN	Axis 4	NaN	Axis 5	NaN	Axis 6	0.000000
TX Power	0.000000	RX Power	0.000000

639.983	0.0148372
640.061	0.0148290
640.139	0.0149026
640.217	0.0148787
640.295	0.0149209
640.373	0.0150207
640.451	0.0149107
640.530	0.0149058
640.608	0.0148957
640.686	0.0150277
640.764	0.0149557
640.842	0.0148784
640.920	0.0149512
640.998	0.0149649
641.076	0.0150241
641.155	0.0150626
641.233	0.0148517
641.311	0.0149581
641.389	0.0149734
641.467	0.0148715
641.545	0.0150541
641.623	0.0150452
641.701	0.0149641
641.780	0.0149073
641.858	0.0149982
641.936	0.0150021
642.014	0.0148936
642.092	0.0148681
642.170	0.0149077
642.248	0.0148458
642.326	0.0149288
642.405	0.0149734
642.483	0.0148033
642.561	0.0148882
642.639	0.0149129
642.717	0.0149237
642.795	0.0149791
642.873	0.0148690
642.951	0.0147504
643.030	0.0148998
643.108	0.0149222
643.186	0.0148322
643.264	0.0148835
643.342	0.0149803
643.420	0.0147867
643.498	0.0147174
643.576	0.0148838
643.655	0.0149860
643.733	0.0148730
643.811	0.0148927
643.889	0.0149255
643.967	0.0148062
644.045	0.0148390
644.123	0.0148119
644.201	0.0149007
644.280	0.0147954
644.358	0.0148277
644.436	0.0149658
644.514	0.0149053
644.592	0.0149216
644.670	0.0148748
644.748	0.0148801
644.826	0.0148830
644.905	0.0148867
644.983	0.0148834
645.061	0.0148737
645.139	0.0147758
645.217	0.0149326
645.295	0.0149313
645.373	0.0148434
645.451	0.0149199
645.530	0.0149220
645.608	0.0148300
645.686	0.0149420
645.764	0.0149306
645.842	0.0147296
645.920	0.0149029
645.998	0.0149606
646.076	0.0148566
646.155	0.0147266
646.233	0.0148547
646.311	0.0148903
646.389	0.0148993
646.467	0.0149207
646.545	0.0148988
646.623	0.0148631
646.701	0.0148904
646.780	0.0149026
646.858	0.0148096
646.936	0.0148425
647.014	0.0147578
647.092	0.0148630
647.170	0.0149599
647.248	0.0149688
647.326	0.0148380
647.405	0.0148067
647.483	0.0148589
647.561	0.0148515
647.639	0.0147391
647.717	0.0148604
647.795	0.0148591
647.873	0.0148455
647.951	0.0149809
648.030	0.0147707
648.108	0.0148054
648.186	0.0149309
648.264	0.0149657
648.342	0.0149799
648.420	0.0147903
648.498	0.0148459
648.576	0.0149481
648.655	0.0149608
648.733	0.0149353
648.811	0.0149534
648.889	0.0150401
648.967	0.0146764
649.045	0.0148393
649.123	0.0148706
649.201	0.0149359
649.280	0.0148609
649.358	0.0148140
649.436	0.0146570
649.514	0.0147398
649.592	0.0147979
649.670	0.0146870
649.748	0.0146860
649.826	0.0148512
649.905	0.0148710
649.983	0.0147643
650.061	0.0148997
650.139	0.0147753
650.217	0.0146594
650.295	0.0147887
650.373	0.0147469
650.451	0.0148344
650.530	0.0148872
650.608	0.0147081
650.686	0.0148418
650.764	0.0148146
650.842	0.0148299
650.920	0.0147400
650.998	0.0146944
651.076	0.0148882
651.155	0.0148701
651.233	0.0148569
651.311	0.0148671
651.389	0.0149300
651.467	0.0149394
651.545	0.0148652
651.623	0.0147987
651.701	0.0149034
651.780	0.0148085
651.858	0.0149317
651.936	0.0149995
652.014	0.0148953
652.092	0.0147256
652.170	0.0148511
652.248	0.0148301
652.326	0.0148525
652.405	0.0148025
652.483	0.0149249
652.561	0.0148945
652.639	0.0147637
652.717	0.0148325
652.795	0.0148764
652.873	0.0149224
652.951	0.0148855
653.030	0.0148447
653.108	0.0148104
653.186	0.0147809
653.264	0.0149548
653.342	0.0149327
653.420	0.0149190
653.498	0.0149080
653.576	0.0147713
653.655	0.0147820
653.733	0.0149135
653.811	0.0148589
653.889	0.0148806
653.967	0.0147859
654.045	0.0149264
654.123	0.0149342
654.201	0.0149720
654.280	0.0148093
654.358	0.0147742
654.436	0.0149511
654.514	0.0148481
654.592	0.0148535
654.670	0.0148611
654.748	0.0147342
654.826	0.0148159
654.905	0.0148578
654.983	0.0147715
655.061	0.0147209
655.139	0.0147382
655.217	0.0148852
655.295	0.0148340
655.373	0.0148071
655.451	0.0148144
655.530	0.0148101
655.608	0.0148734
655.686	0.0149377
655.764	0.0148141
655.842	0.0148355
655.920	0.0146425
655.998	0.0149577
656.076	0.0148823
656.155	0.0147656
656.233	0.0148892
656.311	0.0150040
656.389	0.0148656
656.467	0.0148050
656.545	0.0149076
656.623	0.0150307
656.701	0.0150431
656.780	0.0150578
656.858	0.0149944
656.936	0.0150233
657.014	0.0149751
657.092	0.0148723
657.170	0.0148452
657.248	0.0148790
657.326	0.0149672
657.405	0.0148167
657.483	0.0147670
657.561	0.0147238
657.639	0.0147441
657.717	0.0148196
657.795	0.0147533
657.873	0.0147543
657.951	0.0147292
658.030	0.0150520
658.108	0.0148347
658.186	0.0148751
658.264	0.0149660
658.342	0.0150349
658.420	0.0148515
658.498	0.0149390
658.576	0.0150484
658.655	0.0151845
658.733	0.0149162
658.811	0.0150245
658.889	0.0151013
658.967	0.0149900
659.045	0.0149923
659.123	0.0149417
659.201	0.0149577
659.280	0.0150068
659.358	0.0149829
659.436	0.0148037
659.514	0.0147276
659.592	0.0147844
659.670	0.0148576
659.748	0.0148602
659.826	0.0147495
659.905	0.0147399
659.983	0.0147325
660.061	0.0147988
660.139	0.0148936
660.217	0.0148663
660.295	0.0148170
660.373	0.0147524
660.451	0.0147026
660.530	0.0148991
660.608	0.0148003
660.686	0.0147876
660.764	0.0148368
660.842	0.0148093
660.920	0.0148311
660.998	0.0149344
661.076	0.0149773
661.155	0.0148604
661.233	0.0150729
661.311	0.0149583
661.389	0.0149147
661.467	0.0149683
661.545	0.0150996
661.623	0.0148771
661.701	0.0147640
661.780	0.0148892
661.858	0.0148447
661.936	0.0147238
662.014	0.0147811
662.092	0.0148055
662.170	0.0146997
662.248	0.0146701
662.326	0.0146807
662.405	0.0148950
662.483	0.0148022
662.561	0.0146295
662.639	0.0148569
662.717	0.0148093
662.795	0.0149063
662.873	0.0149211
662.951	0.0147817
663.030	0.0149748
663.108	0.0149788
663.186	0.0150052
663.264	0.0150906
663.342	0.0150658
663.420	0.0148613
663.498	0.0150153
663.576	0.0150996
663.655	0.0151134
663.733	0.0152156
663.811	0.0151028
663.889	0.0150017
663.967	0.0147473
664.045	0.0149677
664.123	0.0148884
664.201	0.0148544
664.280	0.0148375
664.358	0.0149061
664.436	0.0148404
664.514	0.0147899
664.592	0.0148127
664.670	0.0148045
664.748	0.0149654
664.826	0.0149416
664.905	0.0149582
664.983	0.0149046
665.061	0.0149006
665.139	0.0148815
665.217	0.0149249
665.295	0.0150467
665.373	0.0148363
665.451	0.0150787
665.530	0.0151215
665.608	0.0151460
665.686	0.0152114
665.764	0.0150001
665.842	0.0149710
665.920	0.0149648
665.998	0.0149491
666.076	0.0148981
666.155	0.0147223
666.233	0.0148257
666.311	0.0149153
666.389	0.0148113
666.467	0.0148225
666.545	0.0148634
666.623	0.0148421
666.701	0.0147871
666.780	0.0147720
666.858	0.0147729
666.936	0.0150038
667.014	0.0149853
667.092	0.0149023
667.170	0.0149690
667.248	0.0150715
667.326	0.0149754
667.405	0.0149122
667.483	0.0151172
667.561	0.0149487
667.639	0.0148989
667.717	0.0149936
667.795	0.0150475
667.873	0.0149799
667.951	0.0148724
668.030	0.0148188
668.108	0.0148654
668.186	0.0148648
668.264	0.0148236
668.342	0.0147791
668.420	0.0147862
668.498	0.0146989
668.576	0.0147248
668.655	0.0148457
668.733	0.0148316
668.811	0.0148055
668.889	0.0146867
668.967	0.0148396
669.045	0.0147726
669.123	0.0147057
669.201	0.0147279
669.280	0.0147836
669.358	0.0146849
669.436	0.0147412
669.514	0.0146932
669.592	0.0148090
669.670	0.0147936
669.748	0.0147083
669.826	0.0147067
669.905	0.0147704
669.983	0.0147778
670.061	0.0147680
670.139	0.0147255
670.217	0.0148605
670.295	0.0148831
670.373	0.0147403
670.451	0.0148072
670.530	0.0147713
670.608	0.0147561
670.686	0.0147586
670.764	0.0147461
670.842	0.0147762
670.920	0.0146964
670.998	0.0147237
671.076	0.0147289
671.155	0.0147889
671.233	0.0147326
671.311	0.0146696
671.389	0.0146622
671.467	0.0147479
671.545	0.0147190
671.623	0.0146078
671.701	0.0146754
671.780	0.0147145
671.858	0.0146432
671.936	0.0146109
672.014	0.0147820
672.092	0.0147513
672.170	0.0146433
672.248	0.0147572
672.326	0.0147486
672.405	0.0146736
672.483	0.0147900
672.561	0.0146937
672.639	0.0146577
672.717	0.0147015
672.795	0.0146902
672.873	0.0147017
672.951	0.0146841
673.030	0.0148067
673.108	0.0148611
673.186	0.0148487
673.264	0.0147982
673.342	0.0146947
673.420	0.0147571
673.498	0.0145557
673.576	0.0148424
673.655	0.0148317
673.733	0.0147778
673.811	0.0148185
673.889	0.0148227
673.967	0.0147141
674.045	0.0147545
674.123	0.0148239
674.201	0.0147646
674.280	0.0148359
674.358	0.0148189
674.436	0.0148044
674.514	0.0148254
674.592	0.0150039
674.670	0.0148351
674.748	0.0148769
674.826	0.0149799
674.905	0.0149349
674.983	0.0150093
675.061	0.0149510
675.139	0.0149610
675.217	0.0149245
675.295	0.0149454
675.373	0.0149553
675.451	0.0149186
675.530	0.0147608
675.608	0.0150299
675.686	0.0150119
675.764	0.0148479
675.842	0.0148692
675.920	0.0150954
675.998	0.0150825
676.076	0.0149218
676.155	0.0149175
676.233	0.0148677
676.311	0.0148620
676.389	0.0148498
676.467	0.0149197
676.545	0.0148321
676.623	0.0147630
676.701	0.0146829
676.780	0.0147329
676.858	0.0147251
676.936	0.0147908
677.014	0.0146231
677.092	0.0147321
677.170	0.0147368
677.248	0.0148038
677.326	0.0148445
677.405	0.0148589
677.483	0.0149751
677.561	0.0149380
677.639	0.0151758
677.717	0.0153594
677.795	0.0153668
677.873	0.0154308
677.951	0.0152215
678.030	0.0153397
678.108	0.0154311
678.186	0.0154471
678.264	0.0152420
678.342	0.0152399
678.420	0.0150480
678.498	0.0148813
678.576	0.0148029
678.655	0.0147137
678.733	0.0146075
678.811	0.0144350
678.889	0.0144366
678.967	0.0142642
679.045	0.0140703
679.123	0.0141596
679.201	0.0143149
679.280	0.0142610
679.358	0.0143775
679.436	0.0144152
679.514	0.0144929
679.592	0.0147307
679.670	0.0148985
679.748	0.0149683
679.826	0.0152012
679.905	0.0152654
679.983	0.0151572
680.061	0.0153145
680.139	0.0153862
680.217	0.0153427
680.295	0.0155420
680.373	0.0153927
680.451	0.0155364
680.530	0.0154387
680.608	0.0154485
680.686	0.0152252
680.764	0.0151846
680.842	0.0152642
680.920	0.0151130
680.998	0.0151573
681.076	0.0150578
681.155	0.0150262
681.233	0.0148311
681.311	0.0147506
681.389	0.0147340
681.467	0.0147404
681.545	0.0145680
681.623	0.0145545
681.701	0.0144118
681.780	0.0143484
681.858	0.0143126
681.936	0.0144384
682.014	0.0143938
682.092	0.0144222
682.170	0.0143937
682.248	0.0144630
682.326	0.0146749
682.405	0.0148019
682.483	0.0148479
682.561	0.0148799
682.639	0.0148145
682.717	0.0150453
682.795	0.0150476
682.873	0.0148986
682.951	0.0148873
683.030	0.0150710
683.108	0.0149548
683.186	0.0150336
683.264	0.0148934
683.342	0.0148823
683.420	0.0148849
683.498	0.0148618
683.576	0.0147963
683.655	0.0148674
683.733	0.0149336
683.811	0.0148580
683.889	0.0148645
683.967	0.0151208
684.045	0.0151425
684.123	0.0151167
684.201	0.0149114
684.280	0.0150420
684.358	0.0151873
684.436	0.0152547
684.514	0.0152021
684.592	0.0151103
684.670	0.0151563
684.748	0.0150623
684.826	0.0150626
684.905	0.0152758
684.983	0.0151887
685.061	0.0152111
685.139	0.0151932
685.217	0.0153005
685.295	0.0153218
685.373	0.0151505
685.451	0.0153429
685.530	0.0152647
685.608	0.0152502
685.686	0.0154558
685.764	0.0153397
685.842	0.0153405
685.920	0.0153002
685.998	0.0152431
686.076	0.0151305
686.155	0.0150027
686.233	0.0147234
686.311	0.0146227
686.389	0.0142852
686.467	0.0141627
686.545	0.0139010
686.623	0.0137916
686.701	0.0136599
686.780	0.0133624
686.858	0.0133856
686.936	0.0130524
687.014	0.0131107
687.092	0.0131400
687.170	0.0131188
687.248	0.0131709
687.326	0.0129767
687.405	0.0134071
687.483	0.0138144
687.561	0.0138335
687.639	0.0141140
687.717	0.0143063
687.795	0.0148345
687.873	0.0150222
687.951	0.0153893
688.030	0.0157738
688.108	0.0159685
688.186	0.0163123
688.264	0.0164576
688.342	0.0166251
688.420	0.0167432
688.498	0.0168268
688.576	0.0170422
688.655	0.0171225
688.733	0.0169664
688.811	0.0168018
688.889	0.0168610
688.967	0.0165459
689.045	0.0163383
689.123	0.0161191
689.201	0.0159298
689.280	0.0159144
689.358	0.0154280
689.436	0.0152010
689.514	0.0147740
689.592	0.0145309
689.670	0.0143439
689.748	0.0139498
689.826	0.0137656
689.905	0.0136365
689.983	0.0132629
690.061	0.0131311
690.139	0.0130570
690.217	0.0129983
690.295	0.0128822
690.373	0.0129162
690.451	0.0129734
690.530	0.0130302
690.608	0.0131705
690.686	0.0133257
690.764	0.0134027
690.842	0.0134425
690.920	0.0138399
690.998	0.0140511
691.076	0.0140075
691.155	0.0141947
691.233	0.0144654
691.311	0.0145771
691.389	0.0146043
691.467	0.0149149
691.545	0.0149866
691.623	0.0152792
691.701	0.0151994
691.780	0.0155163
691.858	0.0157368
691.936	0.0157858
692.014	0.0161282
692.092	0.0162281
692.170	0.0164953
692.248	0.0165206
692.326	0.0165583
692.405	0.0165170
692.483	0.0165752
692.561	0.0164948
692.639	0.0162914
692.717	0.0159422
692.795	0.0156940
692.873	0.0155979
692.951	0.0152105
693.030	0.0149622
693.108	0.0145718
693.186	0.0142719
693.264	0.0139729
693.342	0.0137930
693.420	0.0136559
693.498	0.0136475
693.576	0.0133923
693.655	0.0135010
693.733	0.0137054
693.811	0.0137703
693.889	0.0137297
693.967	0.0139330
694.045	0.0140855
694.123	0.0142658
694.201	0.0144005
694.280	0.0144885
694.358	0.0145121
694.436	0.0146271
694.514	0.0144865
694.592	0.0141997
694.670	0.0141354
694.748	0.0140954
694.826	0.0138918
694.905	0.0139789
694.983	0.0139234
695.061	0.0138631
695.139	0.0138809
695.217	0.0139980
695.295	0.0141128
695.373	0.0143029
695.451	0.0145252
695.530	0.0148524
695.608	0.0151310
695.686	0.0154122
695.764	0.0156141
695.842	0.0160805
695.920	0.0162873
695.998	0.0164124
696.076	0.0164922
696.155	0.0165694
696.233	0.0167365
696.311	0.0166787
696.389	0.0165516
696.467	0.0164537
696.545	0.0164909
696.623	0.0163129
696.701	0.0161774
696.780	0.0157437
696.858	0.0157007
696.936	0.0154373
697.014	0.0151404
697.092	0.0148179
697.170	0.0146112
697.248	0.0144640
697.326	0.0140991
697.405	0.0141087
697.483	0.0138379
697.561	0.0134712
697.639	0.0133440
697.717	0.0132858
697.795	0.0130768
697.873	0.0128307
697.951	0.0129463
698.030	0.0129140
698.108	0.0127785
698.186	0.0129099
698.264	0.0130312
698.342	0.0131041
698.420	0.0130811
698.498	0.0132570
698.576	0.0135541
698.655	0.0136233
698.733	0.0137506
698.811	0.0141178
698.889	0.0143832
698.967	0.0146709
699.045	0.0150593
699.123	0.0153371
699.201	0.0156412
699.280	0.0159683
699.358	0.0162728
699.436	0.0163960
699.514	0.0166315
699.592	0.0166472
699.670	0.0168306
699.748	0.0167958
699.826	0.0166951
699.905	0.0165012
699.983	0.0165593
700.061	0.0164894
700.139	0.0163613
700.217	0.0162463
700.295	0.0160432
700.373	0.0158562
700.451	0.0157223
700.530	0.0156850
700.608	0.0156725
700.686	0.0153941
700.764	0.0155347
700.842	0.0153578
700.920	0.0152242
700.998	0.0152293
701.076	0.0150771
701.155	0.0150567
701.233	0.0148772
701.311	0.0146316
701.389	0.0144321
701.467	0.0143484
701.545	0.0141183
701.623	0.0139321
701.701	0.0135923
701.780	0.0135194
701.858	0.0133816
701.936	0.0133003
702.014	0.0134209
702.092	0.0133467
702.170	0.0134473
702.248	0.0133601
702.326	0.0136186
702.405	0.0137113
702.483	0.0138722
702.561	0.0137399
702.639	0.0139513
702.717	0.0141680
702.795	0.0141759
702.873	0.0142030
702.951	0.0142048
703.030	0.0143530
703.108	0.0143983
703.186	0.0144869
703.264	0.0144422
703.342	0.0145462
703.420	0.0147213
703.498	0.0149895
703.576	0.0150628
703.655	0.0152488
703.733	0.0153764
703.811	0.0153999
703.889	0.0156808
703.967	0.0155167
704.045	0.0156329
704.123	0.0155891
704.201	0.0157086
704.280	0.0157211
704.358	0.0156563
704.436	0.0157704
704.514	0.0156782
704.592	0.0157627
704.670	0.0159632
704.748	0.0159196
704.826	0.0158823
704.905	0.0160963
704.983	0.0163917
705.061	0.0162044
705.139	0.0161014
705.217	0.0161140
705.295	0.0159295
705.373	0.0158030
705.451	0.0155493
705.530	0.0153861
705.608	0.0151458
705.686	0.0149430
705.764	0.0146886
705.842	0.0143478
705.920	0.0142390
705.998	0.0139956
706.076	0.0136844
706.155	0.0138271
706.233	0.0137157
706.311	0.0135031
706.389	0.0136084
706.467	0.0136628
706.545	0.0136028
706.623	0.0137314
706.701	0.0138118
706.780	0.0140955
706.858	0.0142104
706.936	0.0143889
707.014	0.0145525
707.092	0.0148254
707.170	0.0150519
707.248	0.0154253
707.326	0.0155463
707.405	0.0156769
707.483	0.0157119
707.561	0.0157718
707.639	0.0156895
707.717	0.0158694
707.795	0.0157325
707.873	0.0156487
707.951	0.0155186
708.030	0.0154279
708.108	0.0152725
708.186	0.0152021
708.264	0.0150867
708.342	0.0149773
708.420	0.0147935
708.498	0.0146560
708.576	0.0145414
708.655	0.0144354
708.733	0.0144023
708.811	0.0141855
708.889	0.0141553
708.967	0.0141130
709.045	0.0140235
709.123	0.0141356
709.201	0.0141670
709.280	0.0141829
709.358	0.0143987
709.436	0.0145642
709.514	0.0146597
709.592	0.0148080
709.670	0.0150743
709.748	0.0153078
709.826	0.0154984
709.905	0.0155813
709.983	0.0157617
710.061	0.0158918
710.139	0.0156669
710.217	0.0159063
710.295	0.0159711
710.373	0.0158710
710.451	0.0157939
710.530	0.0157375
710.608	0.0156719
710.686	0.0155298
710.764	0.0154385
710.842	0.0152755
710.920	0.0151170
710.998	0.0149922
711.076	0.0148283
711.155	0.0147182
711.233	0.0145219
711.311	0.0143334
711.389	0.0141322
711.467	0.0140867
711.545	0.0138715
711.623	0.0139080
711.701	0.0138763
711.780	0.0139143
711.858	0.0137785
711.936	0.0140456
712.014	0.0140821
712.092	0.0141811
712.170	0.0142014
712.248	0.0143500
712.326	0.0143945
712.405	0.0144135
712.483	0.0144318
712.561	0.0143250
712.639	0.0142651
712.717	0.0141723
712.795	0.0142024
712.873	0.0141756
712.951	0.0143473
713.030	0.0142859
713.108	0.0142342
713.186	0.0143436
713.264	0.0145168
713.342	0.0146580
713.420	0.0148342
713.498	0.0150849
713.576	0.0152426
713.655	0.0153131
713.733	0.0153278
713.811	0.0155473
713.889	0.0155090
713.967	0.0155252
714.045	0.0153402
714.123	0.0151824
714.201	0.0150861
714.280	0.0149982
714.358	0.0149168
714.436	0.0149271
714.514	0.0148434
714.592	0.0148109
714.670	0.0145827
714.748	0.0146651
714.826	0.0149238
714.905	0.0150804
714.983	0.0150158
715.061	0.0152124
715.139	0.0154046
715.217	0.0155419
715.295	0.0155806
715.373	0.0155416
715.451	0.0156087
715.530	0.0156271
715.608	0.0155285
715.686	0.0155981
715.764	0.0155714
715.842	0.0153007
715.920	0.0152635
715.998	0.0151863
716.076	0.0151377
716.155	0.0148881
716.233	0.0147278
716.311	0.0146686
716.389	0.0144749
716.467	0.0143704
716.545	0.0142695
716.623	0.0140916
716.701	0.0139003
716.780	0.0140170
716.858	0.0138753
716.936	0.0138068
717.014	0.0138084
717.092	0.0139107
717.170	0.0138626
717.248	0.0139486
717.326	0.0137747
717.405	0.0140168
717.483	0.0141616
717.561	0.0143855
717.639	0.0143929
717.717	0.0145889
717.795	0.0147902
717.873	0.0148038
717.951	0.0151355
718.030	0.0150755
718.108	0.0150758
718.186	0.0151731
718.264	0.0150946
718.342	0.0151371
718.420	0.0147423
718.498	0.0147058
718.576	0.0148255
718.655	0.0148141
718.733	0.0147871
718.811	0.0148226
718.889	0.0147426
718.967	0.0147905
719.045	0.0149317
719.123	0.0151016
719.201	0.0150436
719.280	0.0151627
719.358	0.0151775
719.436	0.0152148
719.514	0.0151788
719.592	0.0153086
719.670	0.0153564
719.748	0.0154260
719.826	0.0153778
719.905	0.0154836
719.983	0.0155396
720.061	0.0156229
720.139	0.0154334
720.217	0.0154884
720.295	0.0154971
720.373	0.0154713
720.451	0.0154282
720.530	0.0151413
720.608	0.0151186
720.686	0.0149216
720.764	0.0149280
720.842	0.0146552
720.920	0.0145607
720.998	0.0144046
721.076	0.0144688
721.155	0.0144603
721.233	0.0144399
721.311	0.0144858
721.389	0.0145728
721.467	0.0146799
721.545	0.0146781
721.623	0.0150522
721.701	0.0149354
721.780	0.0150359
721.858	0.0150108
721.936	0.0150980
722.014	0.0151700
722.092	0.0153036
722.170	0.0151144
722.248	0.0150124
722.326	0.0149732
722.405	0.0150224
722.483	0.0148788
722.561	0.0148547
722.639	0.0147525
722.717	0.0146469
722.795	0.0146223
722.873	0.0146375
722.951	0.0147849
723.030	0.0148370
723.108	0.0147854
723.186	0.0149657
723.264	0.0151328
723.342	0.0151261
723.420	0.0152260
723.498	0.0153377
723.576	0.0154436
723.655	0.0152399
723.733	0.0154343
723.811	0.0155322
723.889	0.0153751
723.967	0.0152598
724.045	0.0151644
724.123	0.0149969
724.201	0.0149757
724.280	0.0149049
724.358	0.0149469
724.436	0.0147633
724.514	0.0147111
724.592	0.0146736
724.670	0.0145949
724.748	0.0144725
724.826	0.0146659
724.905	0.0145203
724.983	0.0143863
725.061	0.0143264
725.139	0.0144117
725.217	0.0144079
725.295	0.0141608
725.373	0.0143144
725.451	0.0142476
725.530	0.0143242
725.608	0.0143531
725.686	0.0144371
