05/20/2022	16:26:47	Ver.	4.1	UNKNOWN
Optical Delay	639.982744	Delta X		0.078125	Sweeps	1	Scan Rate	0/0
Coordinates	Axis 1	NaN	Axis 2	NaN	Axis 3	NaN	Axis 4	NaN	Axis 5	NaN	Axis 6	0.000000
TX Power	0.000000	RX Power	0.000000

639.983	0.0147831
640.061	0.0147174
640.139	0.0148660
640.217	0.0147184
640.295	0.0146721
640.373	0.0146651
640.451	0.0147671
640.530	0.0147630
640.608	0.0147504
640.686	0.0146725
640.764	0.0146646
640.842	0.0147248
640.920	0.0146836
640.998	0.0146741
641.076	0.0146764
641.155	0.0148256
641.233	0.0146223
641.311	0.0145675
641.389	0.0147343
641.467	0.0147170
641.545	0.0146769
641.623	0.0146602
641.701	0.0147692
641.780	0.0147330
641.858	0.0147577
641.936	0.0147312
642.014	0.0146853
642.092	0.0147543
642.170	0.0148528
642.248	0.0148206
642.326	0.0147163
642.405	0.0147222
642.483	0.0147081
642.561	0.0145621
642.639	0.0146700
642.717	0.0147923
642.795	0.0148860
642.873	0.0146806
642.951	0.0147404
643.030	0.0147450
643.108	0.0147626
643.186	0.0147617
643.264	0.0148025
643.342	0.0147518
643.420	0.0148191
643.498	0.0147556
643.576	0.0147129
643.655	0.0146983
643.733	0.0147128
643.811	0.0146812
643.889	0.0148811
643.967	0.0146810
644.045	0.0147129
644.123	0.0146985
644.201	0.0148151
644.280	0.0147153
644.358	0.0146169
644.436	0.0147217
644.514	0.0148309
644.592	0.0146751
644.670	0.0148097
644.748	0.0147060
644.826	0.0146936
644.905	0.0146619
644.983	0.0146337
645.061	0.0147977
645.139	0.0146571
645.217	0.0147662
645.295	0.0147158
645.373	0.0148744
645.451	0.0146546
645.530	0.0146939
645.608	0.0147240
645.686	0.0146586
645.764	0.0147765
645.842	0.0146878
645.920	0.0146242
645.998	0.0146502
646.076	0.0147024
646.155	0.0146677
646.233	0.0146757
646.311	0.0145207
646.389	0.0146567
646.467	0.0146475
646.545	0.0146182
646.623	0.0146587
646.701	0.0147158
646.780	0.0147448
646.858	0.0148921
646.936	0.0148566
647.014	0.0148042
647.092	0.0147897
647.170	0.0149023
647.248	0.0147939
647.326	0.0147923
647.405	0.0147857
647.483	0.0146969
647.561	0.0148824
647.639	0.0147630
647.717	0.0146268
647.795	0.0148032
647.873	0.0148600
647.951	0.0146675
648.030	0.0146666
648.108	0.0147652
648.186	0.0146822
648.264	0.0147452
648.342	0.0146478
648.420	0.0147913
648.498	0.0148567
648.576	0.0147236
648.655	0.0147868
648.733	0.0146856
648.811	0.0148624
648.889	0.0149103
648.967	0.0147675
649.045	0.0147190
649.123	0.0148264
649.201	0.0147952
649.280	0.0148639
649.358	0.0147063
649.436	0.0146205
649.514	0.0146861
649.592	0.0147832
649.670	0.0147375
649.748	0.0146973
649.826	0.0147181
649.905	0.0147401
649.983	0.0146768
650.061	0.0147042
650.139	0.0147654
650.217	0.0148064
650.295	0.0147032
650.373	0.0146906
650.451	0.0146761
650.530	0.0146595
650.608	0.0146848
650.686	0.0146848
650.764	0.0146725
650.842	0.0148174
650.920	0.0146809
650.998	0.0147928
651.076	0.0147099
651.155	0.0148320
651.233	0.0149083
651.311	0.0149131
651.389	0.0147439
651.467	0.0146764
651.545	0.0147459
651.623	0.0147636
651.701	0.0148219
651.780	0.0146609
651.858	0.0148181
651.936	0.0148551
652.014	0.0146212
652.092	0.0146634
652.170	0.0147113
652.248	0.0146925
652.326	0.0148781
652.405	0.0146719
652.483	0.0146942
652.561	0.0146703
652.639	0.0148132
652.717	0.0147166
652.795	0.0147679
652.873	0.0147664
652.951	0.0146743
653.030	0.0147690
653.108	0.0148921
653.186	0.0146469
653.264	0.0148545
653.342	0.0148192
653.420	0.0148561
653.498	0.0147337
653.576	0.0146986
653.655	0.0148176
653.733	0.0147003
653.811	0.0147041
653.889	0.0147370
653.967	0.0146822
654.045	0.0148785
654.123	0.0147620
654.201	0.0146575
654.280	0.0146524
654.358	0.0146696
654.436	0.0147688
654.514	0.0146606
654.592	0.0146885
654.670	0.0147870
654.748	0.0147763
654.826	0.0147703
654.905	0.0148744
654.983	0.0148634
655.061	0.0147427
655.139	0.0148748
655.217	0.0148821
655.295	0.0149586
655.373	0.0149479
655.451	0.0148589
655.530	0.0149220
655.608	0.0148123
655.686	0.0148128
655.764	0.0146935
655.842	0.0146570
655.920	0.0146933
655.998	0.0145923
656.076	0.0147626
656.155	0.0146210
656.233	0.0146973
656.311	0.0146706
656.389	0.0145912
656.467	0.0145671
656.545	0.0146410
656.623	0.0145967
656.701	0.0146531
656.780	0.0147933
656.858	0.0147451
656.936	0.0147620
657.014	0.0147327
657.092	0.0148041
657.170	0.0148049
657.248	0.0149576
657.326	0.0149474
657.405	0.0147349
657.483	0.0148895
657.561	0.0149665
657.639	0.0148441
657.717	0.0147108
657.795	0.0148084
657.873	0.0148716
657.951	0.0145602
658.030	0.0147311
658.108	0.0146315
658.186	0.0146851
658.264	0.0146003
658.342	0.0146771
658.420	0.0146278
658.498	0.0146408
658.576	0.0146327
658.655	0.0146128
658.733	0.0148212
658.811	0.0145821
658.889	0.0147216
658.967	0.0146381
659.045	0.0147480
659.123	0.0148727
659.201	0.0148544
659.280	0.0148031
659.358	0.0148743
659.436	0.0148849
659.514	0.0147686
659.592	0.0147655
659.670	0.0149013
659.748	0.0148365
659.826	0.0148093
659.905	0.0148874
659.983	0.0147784
660.061	0.0147513
660.139	0.0149152
660.217	0.0148668
660.295	0.0147483
660.373	0.0147607
660.451	0.0147504
660.530	0.0147014
660.608	0.0145766
660.686	0.0146215
660.764	0.0146330
660.842	0.0147412
660.920	0.0146307
660.998	0.0146207
661.076	0.0147332
661.155	0.0145775
661.233	0.0145280
661.311	0.0147608
661.389	0.0147627
661.467	0.0147428
661.545	0.0147605
661.623	0.0148611
661.701	0.0148381
661.780	0.0149120
661.858	0.0148370
661.936	0.0147640
662.014	0.0149664
662.092	0.0149171
662.170	0.0148303
662.248	0.0149830
662.326	0.0149208
662.405	0.0148750
662.483	0.0147771
662.561	0.0147299
662.639	0.0146511
662.717	0.0148050
662.795	0.0147820
662.873	0.0147800
662.951	0.0146703
663.030	0.0146283
663.108	0.0147013
663.186	0.0146303
663.264	0.0147208
663.342	0.0146748
663.420	0.0146476
663.498	0.0146214
663.576	0.0146865
663.655	0.0148975
663.733	0.0149120
663.811	0.0148252
663.889	0.0147243
663.967	0.0150100
664.045	0.0149196
664.123	0.0147905
664.201	0.0148589
664.280	0.0148636
664.358	0.0147668
664.436	0.0147791
664.514	0.0147421
664.592	0.0146588
664.670	0.0145610
664.748	0.0146527
664.826	0.0144894
664.905	0.0146018
664.983	0.0145972
665.061	0.0144146
665.139	0.0143861
665.217	0.0143721
665.295	0.0144968
665.373	0.0145319
665.451	0.0144732
665.530	0.0145139
665.608	0.0146136
665.686	0.0146472
665.764	0.0145810
665.842	0.0147005
665.920	0.0147555
665.998	0.0146822
666.076	0.0148238
666.155	0.0145982
666.233	0.0146425
666.311	0.0145565
666.389	0.0147498
666.467	0.0147580
666.545	0.0146854
666.623	0.0146988
666.701	0.0145485
666.780	0.0146624
666.858	0.0146181
666.936	0.0145676
667.014	0.0145335
667.092	0.0145534
667.170	0.0145707
667.248	0.0145612
667.326	0.0146807
667.405	0.0147845
667.483	0.0146326
667.561	0.0147002
667.639	0.0145503
667.717	0.0146671
667.795	0.0146723
667.873	0.0146086
667.951	0.0146893
668.030	0.0145335
668.108	0.0147479
668.186	0.0146093
668.264	0.0146630
668.342	0.0147071
668.420	0.0146661
668.498	0.0147264
668.576	0.0147324
668.655	0.0145733
668.733	0.0146655
668.811	0.0146753
668.889	0.0146597
668.967	0.0147837
669.045	0.0148066
669.123	0.0148980
669.201	0.0148445
669.280	0.0148546
669.358	0.0147716
669.436	0.0147964
669.514	0.0149274
669.592	0.0148661
669.670	0.0146877
669.748	0.0149483
669.826	0.0147514
669.905	0.0147445
669.983	0.0147475
670.061	0.0147377
670.139	0.0146983
670.217	0.0146400
670.295	0.0147855
670.373	0.0147952
670.451	0.0146300
670.530	0.0147169
670.608	0.0147183
670.686	0.0146997
670.764	0.0147294
670.842	0.0146015
670.920	0.0147779
670.998	0.0148401
671.076	0.0147659
671.155	0.0147522
671.233	0.0147635
671.311	0.0149275
671.389	0.0148544
671.467	0.0147907
671.545	0.0148283
671.623	0.0148456
671.701	0.0148443
671.780	0.0147710
671.858	0.0148663
671.936	0.0148396
672.014	0.0147638
672.092	0.0147682
672.170	0.0146956
672.248	0.0147750
672.326	0.0145670
672.405	0.0147153
672.483	0.0147048
672.561	0.0146108
672.639	0.0146954
672.717	0.0145516
672.795	0.0146533
672.873	0.0147050
672.951	0.0147784
673.030	0.0147821
673.108	0.0149026
673.186	0.0148811
673.264	0.0147842
673.342	0.0147815
673.420	0.0148856
673.498	0.0150423
673.576	0.0149992
673.655	0.0148419
673.733	0.0149677
673.811	0.0148994
673.889	0.0149963
673.967	0.0149785
674.045	0.0148588
674.123	0.0148108
674.201	0.0147880
674.280	0.0148844
674.358	0.0148690
674.436	0.0146728
674.514	0.0147665
674.592	0.0146151
674.670	0.0146571
674.748	0.0146656
674.826	0.0146091
674.905	0.0145612
674.983	0.0146497
675.061	0.0147034
675.139	0.0147721
675.217	0.0148966
675.295	0.0149329
675.373	0.0148446
675.451	0.0149352
675.530	0.0150014
675.608	0.0150888
675.686	0.0149648
675.764	0.0148521
675.842	0.0149776
675.920	0.0148332
675.998	0.0147777
676.076	0.0147979
676.155	0.0147523
676.233	0.0145544
676.311	0.0145191
676.389	0.0145250
676.467	0.0144719
676.545	0.0143228
676.623	0.0144872
676.701	0.0145555
676.780	0.0145109
676.858	0.0145621
676.936	0.0146470
677.014	0.0145770
677.092	0.0147466
677.170	0.0150890
677.248	0.0150784
677.326	0.0151517
677.405	0.0152926
677.483	0.0153960
677.561	0.0153433
677.639	0.0152890
677.717	0.0152465
677.795	0.0151923
677.873	0.0150935
677.951	0.0149960
678.030	0.0149330
678.108	0.0146870
678.186	0.0147121
678.264	0.0144357
678.342	0.0143353
678.420	0.0142487
678.498	0.0141645
678.576	0.0141348
678.655	0.0139667
678.733	0.0140244
678.811	0.0139934
678.889	0.0142032
678.967	0.0142798
679.045	0.0143568
679.123	0.0144180
679.201	0.0145078
679.280	0.0148033
679.358	0.0148110
679.436	0.0149326
679.514	0.0152250
679.592	0.0152133
679.670	0.0151481
679.748	0.0153495
679.826	0.0154279
679.905	0.0155120
679.983	0.0153719
680.061	0.0152374
680.139	0.0153139
680.217	0.0153175
680.295	0.0152108
680.373	0.0151970
680.451	0.0151656
680.530	0.0149863
680.608	0.0147968
680.686	0.0146946
680.764	0.0146384
680.842	0.0145164
680.920	0.0143970
680.998	0.0143709
681.076	0.0144171
681.155	0.0142638
681.233	0.0141846
681.311	0.0140804
681.389	0.0140383
681.467	0.0139737
681.545	0.0140446
681.623	0.0141264
681.701	0.0141844
681.780	0.0142383
681.858	0.0144907
681.936	0.0144533
682.014	0.0144531
682.092	0.0147509
682.170	0.0146614
682.248	0.0146501
682.326	0.0147717
682.405	0.0148052
682.483	0.0148038
682.561	0.0148524
682.639	0.0149323
682.717	0.0148988
682.795	0.0148615
682.873	0.0148086
682.951	0.0148726
683.030	0.0146752
683.108	0.0146223
683.186	0.0147485
683.264	0.0146793
683.342	0.0146305
683.420	0.0146851
683.498	0.0146700
683.576	0.0146666
683.655	0.0147347
683.733	0.0146471
683.811	0.0145956
683.889	0.0146283
683.967	0.0147750
684.045	0.0148964
684.123	0.0148315
684.201	0.0147724
684.280	0.0148611
684.358	0.0148535
684.436	0.0148773
684.514	0.0149255
684.592	0.0151020
684.670	0.0150460
684.748	0.0150916
684.826	0.0151285
684.905	0.0150784
684.983	0.0151306
685.061	0.0150378
685.139	0.0152367
685.217	0.0153452
685.295	0.0151437
685.373	0.0152599
685.451	0.0153951
685.530	0.0150540
685.608	0.0150613
685.686	0.0150935
685.764	0.0146967
685.842	0.0146986
685.920	0.0143270
685.998	0.0140715
686.076	0.0140539
686.155	0.0137353
686.233	0.0134947
686.311	0.0133855
686.389	0.0132883
686.467	0.0131096
686.545	0.0130915
686.623	0.0128680
686.701	0.0131215
686.780	0.0131741
686.858	0.0131641
686.936	0.0132975
687.014	0.0135508
687.092	0.0136641
687.170	0.0139179
687.248	0.0142206
687.326	0.0146886
687.405	0.0147775
687.483	0.0151167
687.561	0.0154448
687.639	0.0155559
687.717	0.0158429
687.795	0.0161301
687.873	0.0162571
687.951	0.0163608
688.030	0.0163626
688.108	0.0164930
688.186	0.0165405
688.264	0.0163388
688.342	0.0163546
688.420	0.0163965
688.498	0.0162054
688.576	0.0162124
688.655	0.0160622
688.733	0.0157861
688.811	0.0156063
688.889	0.0154511
688.967	0.0151696
689.045	0.0149616
689.123	0.0145960
689.201	0.0142528
689.280	0.0139357
689.358	0.0137626
689.436	0.0134985
689.514	0.0133425
689.592	0.0130593
689.670	0.0129768
689.748	0.0128171
689.826	0.0126472
689.905	0.0127478
689.983	0.0128850
690.061	0.0128792
690.139	0.0128723
690.217	0.0130051
690.295	0.0132434
690.373	0.0134161
690.451	0.0134782
690.530	0.0136459
690.608	0.0139542
690.686	0.0139281
690.764	0.0141534
690.842	0.0142440
690.920	0.0143178
690.998	0.0145197
691.076	0.0146542
691.155	0.0145049
691.233	0.0149526
691.311	0.0150800
691.389	0.0150610
691.467	0.0153265
691.545	0.0154945
691.623	0.0156734
691.701	0.0162028
691.780	0.0163097
691.858	0.0165215
691.936	0.0167086
692.014	0.0167749
692.092	0.0168298
692.170	0.0168599
692.248	0.0167583
692.326	0.0164127
692.405	0.0164291
692.483	0.0161278
692.561	0.0159254
692.639	0.0155666
692.717	0.0151011
692.795	0.0146150
692.873	0.0143552
692.951	0.0140743
693.030	0.0137486
693.108	0.0135844
693.186	0.0134767
693.264	0.0132893
693.342	0.0133696
693.420	0.0133235
693.498	0.0132977
693.576	0.0133763
693.655	0.0134570
693.733	0.0136050
693.811	0.0137654
693.889	0.0139909
693.967	0.0140702
694.045	0.0141008
694.123	0.0143250
694.201	0.0144283
694.280	0.0143719
694.358	0.0145482
694.436	0.0143785
694.514	0.0143574
694.592	0.0144501
694.670	0.0145297
694.748	0.0142934
694.826	0.0142367
694.905	0.0145686
694.983	0.0144482
695.061	0.0145626
695.139	0.0144894
695.217	0.0147951
695.295	0.0149587
695.373	0.0150355
695.451	0.0153415
695.530	0.0154851
695.608	0.0156380
695.686	0.0158033
695.764	0.0160131
695.842	0.0161383
695.920	0.0162035
695.998	0.0162830
696.076	0.0163320
696.155	0.0163342
696.233	0.0162396
696.311	0.0162377
696.389	0.0160984
696.467	0.0157769
696.545	0.0157109
696.623	0.0155309
696.701	0.0152466
696.780	0.0151979
696.858	0.0147382
696.936	0.0146768
697.014	0.0146030
697.092	0.0142345
697.170	0.0138432
697.248	0.0136423
697.326	0.0134586
697.405	0.0134245
697.483	0.0130533
697.561	0.0130356
697.639	0.0129335
697.717	0.0129815
697.795	0.0130633
697.873	0.0129455
697.951	0.0128986
698.030	0.0129694
698.108	0.0130048
698.186	0.0129760
698.264	0.0131184
698.342	0.0132114
698.420	0.0135093
698.498	0.0135631
698.576	0.0138644
698.655	0.0141566
698.733	0.0144765
698.811	0.0146941
698.889	0.0151926
698.967	0.0156145
699.045	0.0159193
699.123	0.0161739
699.201	0.0165958
699.280	0.0167740
699.358	0.0170832
699.436	0.0173018
699.514	0.0170950
699.592	0.0169942
699.670	0.0170139
699.748	0.0169018
699.826	0.0166492
699.905	0.0162653
699.983	0.0161464
700.061	0.0158559
700.139	0.0157737
700.217	0.0154041
700.295	0.0153949
700.373	0.0152233
700.451	0.0149884
700.530	0.0150038
700.608	0.0149310
700.686	0.0149036
700.764	0.0147685
700.842	0.0147003
700.920	0.0144030
700.998	0.0144123
701.076	0.0143114
701.155	0.0141657
701.233	0.0138764
701.311	0.0137025
701.389	0.0137591
701.467	0.0135539
701.545	0.0134354
701.623	0.0133643
701.701	0.0133611
701.780	0.0132687
701.858	0.0131950
701.936	0.0132977
702.014	0.0134862
702.092	0.0135696
702.170	0.0136696
702.248	0.0138225
702.326	0.0141077
702.405	0.0141722
702.483	0.0144626
702.561	0.0146014
702.639	0.0148066
702.717	0.0148051
702.795	0.0148806
702.873	0.0151730
702.951	0.0151200
703.030	0.0153424
703.108	0.0154427
703.186	0.0152901
703.264	0.0155704
703.342	0.0153233
703.420	0.0153902
703.498	0.0154401
703.576	0.0152761
703.655	0.0152895
703.733	0.0152296
703.811	0.0153033
703.889	0.0151191
703.967	0.0148930
704.045	0.0150035
704.123	0.0149400
704.201	0.0149764
704.280	0.0150795
704.358	0.0152200
704.436	0.0154303
704.514	0.0155375
704.592	0.0158142
704.670	0.0159418
704.748	0.0161126
704.826	0.0162654
704.905	0.0162348
704.983	0.0163227
705.061	0.0162302
705.139	0.0158729
705.217	0.0158044
705.295	0.0154726
705.373	0.0151255
705.451	0.0148398
705.530	0.0143935
705.608	0.0142012
705.686	0.0138404
705.764	0.0134989
705.842	0.0133075
705.920	0.0131970
705.998	0.0130832
706.076	0.0127800
706.155	0.0127972
706.233	0.0127499
706.311	0.0127671
706.389	0.0129253
706.467	0.0132058
706.545	0.0132832
706.623	0.0135677
706.701	0.0137821
706.780	0.0138564
706.858	0.0144111
706.936	0.0145229
707.014	0.0147428
707.092	0.0151687
707.170	0.0153274
707.248	0.0154829
707.326	0.0155417
707.405	0.0156489
707.483	0.0158570
707.561	0.0158345
707.639	0.0158343
707.717	0.0157043
707.795	0.0155185
707.873	0.0154351
707.951	0.0152768
708.030	0.0150796
708.108	0.0148993
708.186	0.0147688
708.264	0.0146034
708.342	0.0144072
708.420	0.0142962
708.498	0.0142648
708.576	0.0140790
708.655	0.0140937
708.733	0.0140365
708.811	0.0140632
708.889	0.0139275
708.967	0.0140699
709.045	0.0141616
709.123	0.0141598
709.201	0.0142024
709.280	0.0142526
709.358	0.0144151
709.436	0.0143684
709.514	0.0144379
709.592	0.0146175
709.670	0.0148475
709.748	0.0147308
709.826	0.0148379
709.905	0.0150285
709.983	0.0150608
710.061	0.0151895
710.139	0.0152830
710.217	0.0154299
710.295	0.0155985
710.373	0.0155821
710.451	0.0156697
710.530	0.0158110
710.608	0.0158115
710.686	0.0157583
710.764	0.0155972
710.842	0.0155084
710.920	0.0152511
710.998	0.0149463
711.076	0.0147879
711.155	0.0146050
711.233	0.0143237
711.311	0.0141765
711.389	0.0140423
711.467	0.0137653
711.545	0.0137832
711.623	0.0138394
711.701	0.0138595
711.780	0.0138274
711.858	0.0139515
711.936	0.0140498
712.014	0.0141843
712.092	0.0140021
712.170	0.0140979
712.248	0.0142020
712.326	0.0142928
712.405	0.0143471
712.483	0.0141798
712.561	0.0142400
712.639	0.0143251
712.717	0.0142189
712.795	0.0143068
712.873	0.0143169
712.951	0.0144716
713.030	0.0144435
713.108	0.0144991
713.186	0.0146104
713.264	0.0149212
713.342	0.0150977
713.420	0.0152171
713.498	0.0152512
713.576	0.0153578
713.655	0.0152604
713.733	0.0152909
713.811	0.0154485
713.889	0.0154597
713.967	0.0152141
714.045	0.0153555
714.123	0.0153008
714.201	0.0152122
714.280	0.0151836
714.358	0.0150533
714.436	0.0148874
714.514	0.0148800
714.592	0.0148425
714.670	0.0148668
714.748	0.0147520
714.826	0.0147059
714.905	0.0146833
714.983	0.0146999
715.061	0.0147143
715.139	0.0146857
715.217	0.0148772
715.295	0.0150408
715.373	0.0150190
715.451	0.0149888
715.530	0.0152053
715.608	0.0153146
715.686	0.0152052
715.764	0.0153400
715.842	0.0154243
715.920	0.0154457
715.998	0.0154448
716.076	0.0152152
716.155	0.0153481
716.233	0.0152052
716.311	0.0150613
716.389	0.0148643
716.467	0.0147286
716.545	0.0146896
716.623	0.0143813
716.701	0.0142751
716.780	0.0141230
716.858	0.0140063
716.936	0.0139233
717.014	0.0139455
717.092	0.0138695
717.170	0.0138185
717.248	0.0138426
717.326	0.0139718
717.405	0.0140327
717.483	0.0140444
717.561	0.0141142
717.639	0.0141740
717.717	0.0143488
717.795	0.0144392
717.873	0.0147449
717.951	0.0147636
718.030	0.0147223
718.108	0.0147166
718.186	0.0148845
718.264	0.0150066
718.342	0.0150954
718.420	0.0152062
718.498	0.0150054
718.576	0.0151385
718.655	0.0149520
718.733	0.0149639
718.811	0.0148608
718.889	0.0147055
718.967	0.0147926
719.045	0.0148234
719.123	0.0147288
719.201	0.0146982
719.280	0.0148416
719.358	0.0147461
719.436	0.0147907
719.514	0.0148318
719.592	0.0150565
719.670	0.0152400
719.748	0.0151812
719.826	0.0153465
719.905	0.0153428
719.983	0.0154193
720.061	0.0155339
720.139	0.0155502
720.217	0.0154495
720.295	0.0153463
720.373	0.0151277
720.451	0.0151607
720.530	0.0151443
720.608	0.0150555
720.686	0.0148281
720.764	0.0148727
720.842	0.0145124
720.920	0.0146181
720.998	0.0146290
721.076	0.0146002
721.155	0.0145166
721.233	0.0145313
721.311	0.0146886
721.389	0.0145407
721.467	0.0146758
721.545	0.0145528
721.623	0.0145619
721.701	0.0146644
721.780	0.0145874
721.858	0.0146437
721.936	0.0147120
722.014	0.0145458
722.092	0.0144791
722.170	0.0144599
722.248	0.0144511
722.326	0.0142539
722.405	0.0142809
722.483	0.0141010
722.561	0.0142419
722.639	0.0142758
722.717	0.0142924
722.795	0.0144080
722.873	0.0145129
722.951	0.0144534
723.030	0.0147215
723.108	0.0149049
723.186	0.0148779
723.264	0.0148394
723.342	0.0151663
723.420	0.0152651
723.498	0.0152860
723.576	0.0153008
723.655	0.0153480
723.733	0.0153075
723.811	0.0154536
723.889	0.0153053
723.967	0.0152574
724.045	0.0151013
724.123	0.0150251
724.201	0.0148766
724.280	0.0147028
724.358	0.0144913
724.436	0.0145143
724.514	0.0143607
724.592	0.0143813
724.670	0.0144012
724.748	0.0144009
724.826	0.0142812
724.905	0.0142093
724.983	0.0142740
725.061	0.0141880
725.139	0.0142570
725.217	0.0143958
725.295	0.0143909
725.373	0.0144077
725.451	0.0144592
725.530	0.0144459
725.608	0.0145232
725.686	0.0145738
