05/26/2022	21:13:16	Ver.	4.1	UNKNOWN
Optical Delay	400.043419	Delta X		0.078125	Sweeps	1	Scan Rate	0/0
Coordinates	Axis 1	NaN	Axis 2	NaN	Axis 3	NaN	Axis 4	NaN	Axis 5	NaN	Axis 6	0.000000
TX Power	0.000000	RX Power	0.000000

400.043	0.0150555
400.122	0.0150678
400.200	0.0151257
400.278	0.0150011
400.356	0.0150331
400.434	0.0150065
400.512	0.0150144
400.590	0.0149586
400.668	0.0150069
400.747	0.0149804
400.825	0.0150375
400.903	0.0149911
400.981	0.0150062
401.059	0.0149538
401.137	0.0151046
401.215	0.0150275
401.293	0.0150552
401.372	0.0150974
401.450	0.0150079
401.528	0.0151793
401.606	0.0150589
401.684	0.0150320
401.762	0.0150402
401.840	0.0149140
401.918	0.0150290
401.997	0.0150614
402.075	0.0149852
402.153	0.0150006
402.231	0.0149873
402.309	0.0149496
402.387	0.0149229
402.465	0.0148727
402.543	0.0149751
402.622	0.0148956
402.700	0.0150496
402.778	0.0149512
402.856	0.0150039
402.934	0.0150608
403.012	0.0148569
403.090	0.0149668
403.168	0.0151235
403.247	0.0150598
403.325	0.0150541
403.403	0.0149462
403.481	0.0149827
403.559	0.0149877
403.637	0.0149259
403.715	0.0150616
403.793	0.0149857
403.872	0.0148543
403.950	0.0148345
404.028	0.0149902
404.106	0.0148930
404.184	0.0150302
404.262	0.0150247
404.340	0.0150570
404.418	0.0149607
404.497	0.0150867
404.575	0.0150543
404.653	0.0149432
404.731	0.0149892
404.809	0.0149606
404.887	0.0150921
404.965	0.0150346
405.043	0.0149178
405.122	0.0150797
405.200	0.0151373
405.278	0.0150052
405.356	0.0149296
405.434	0.0150864
405.512	0.0149576
405.590	0.0149511
405.668	0.0150141
405.747	0.0149921
405.825	0.0149806
405.903	0.0149915
405.981	0.0150975
406.059	0.0149245
406.137	0.0149997
406.215	0.0149792
406.293	0.0150424
406.372	0.0149593
406.450	0.0148597
406.528	0.0149362
406.606	0.0150344
406.684	0.0151410
406.762	0.0149219
406.840	0.0151250
406.918	0.0150584
406.997	0.0149097
407.075	0.0149160
407.153	0.0149800
407.231	0.0149085
407.309	0.0151186
407.387	0.0149941
407.465	0.0150376
407.543	0.0150287
407.622	0.0149416
407.700	0.0148993
407.778	0.0150182
407.856	0.0151123
407.934	0.0150350
408.012	0.0149717
408.090	0.0150388
408.168	0.0149689
408.247	0.0150034
408.325	0.0149646
408.403	0.0150355
408.481	0.0150432
408.559	0.0150042
408.637	0.0150458
408.715	0.0149445
408.793	0.0148991
408.872	0.0150415
408.950	0.0151285
409.028	0.0149624
409.106	0.0148804
409.184	0.0150649
409.262	0.0149682
409.340	0.0149056
409.418	0.0150835
409.497	0.0148882
409.575	0.0149301
409.653	0.0150861
409.731	0.0150957
409.809	0.0149963
409.887	0.0149844
409.965	0.0150312
410.043	0.0150233
410.122	0.0151569
410.200	0.0150735
410.278	0.0150702
410.356	0.0150975
410.434	0.0151109
410.512	0.0149546
410.590	0.0150275
410.668	0.0150327
410.747	0.0149108
410.825	0.0149590
410.903	0.0150878
410.981	0.0150610
411.059	0.0150215
411.137	0.0150696
411.215	0.0151517
411.293	0.0150674
411.372	0.0150165
411.450	0.0150462
411.528	0.0149767
411.606	0.0151069
411.684	0.0150794
411.762	0.0149155
411.840	0.0149971
411.918	0.0151292
411.997	0.0152347
412.075	0.0149773
412.153	0.0149063
412.231	0.0150854
412.309	0.0151089
412.387	0.0150900
412.465	0.0148859
412.543	0.0150871
412.622	0.0151017
412.700	0.0149101
412.778	0.0149888
412.856	0.0149296
412.934	0.0150243
413.012	0.0149863
413.090	0.0150700
413.168	0.0151436
413.247	0.0149669
413.325	0.0150181
413.403	0.0150332
413.481	0.0149934
413.559	0.0150546
413.637	0.0150050
413.715	0.0150695
413.793	0.0150721
413.872	0.0149683
413.950	0.0150761
414.028	0.0151266
414.106	0.0149321
414.184	0.0151484
414.262	0.0149792
414.340	0.0149804
414.418	0.0150191
414.497	0.0149696
414.575	0.0150266
414.653	0.0149282
414.731	0.0149676
414.809	0.0150195
414.887	0.0150555
414.965	0.0150165
415.043	0.0149161
415.122	0.0149872
415.200	0.0150242
415.278	0.0150017
415.356	0.0151183
415.434	0.0151572
415.512	0.0150108
415.590	0.0148138
415.668	0.0149775
415.747	0.0151506
415.825	0.0149931
415.903	0.0149881
415.981	0.0149678
416.059	0.0149924
416.137	0.0151490
416.215	0.0150065
416.293	0.0149773
416.372	0.0150543
416.450	0.0149479
416.528	0.0151244
416.606	0.0150785
416.684	0.0150198
416.762	0.0150523
416.840	0.0149836
416.918	0.0149670
416.997	0.0150302
417.075	0.0148532
417.153	0.0151070
417.231	0.0151037
417.309	0.0148936
417.387	0.0149775
417.465	0.0150352
417.543	0.0150945
417.622	0.0150858
417.700	0.0148849
417.778	0.0150860
417.856	0.0148335
417.934	0.0150345
418.012	0.0151210
418.090	0.0149609
418.168	0.0151715
418.247	0.0149133
418.325	0.0150108
418.403	0.0151540
418.481	0.0151376
418.559	0.0150304
418.637	0.0150197
418.715	0.0150050
418.793	0.0149712
418.872	0.0149005
418.950	0.0149282
419.028	0.0150552
419.106	0.0150965
419.184	0.0149521
419.262	0.0148714
419.340	0.0149786
419.418	0.0150421
419.497	0.0149335
419.575	0.0151645
419.653	0.0149084
419.731	0.0150266
419.809	0.0149323
419.887	0.0150716
419.965	0.0151125
420.043	0.0150677
420.122	0.0150925
420.200	0.0150294
420.278	0.0149928
420.356	0.0150212
420.434	0.0149112
420.512	0.0151978
420.590	0.0150082
420.668	0.0149220
420.747	0.0151225
420.825	0.0151822
420.903	0.0150404
420.981	0.0150016
421.059	0.0150750
421.137	0.0148846
421.215	0.0149789
421.293	0.0149719
421.372	0.0150506
421.450	0.0151366
421.528	0.0150890
421.606	0.0149803
421.684	0.0148959
421.762	0.0150206
421.840	0.0149628
421.918	0.0149630
421.997	0.0151432
422.075	0.0150885
422.153	0.0150475
422.231	0.0149837
422.309	0.0151973
422.387	0.0149853
422.465	0.0150731
422.543	0.0149258
422.622	0.0149119
422.700	0.0150639
422.778	0.0150172
422.856	0.0150136
422.934	0.0151324
423.012	0.0149806
423.090	0.0150102
423.168	0.0150001
423.247	0.0149419
423.325	0.0149245
423.403	0.0151313
423.481	0.0151083
423.559	0.0150431
423.637	0.0149451
423.715	0.0148934
423.793	0.0149461
423.872	0.0150173
423.950	0.0150669
424.028	0.0149146
424.106	0.0150140
424.184	0.0150941
424.262	0.0149683
424.340	0.0149657
424.418	0.0149325
424.497	0.0149756
424.575	0.0148495
424.653	0.0150761
424.731	0.0149585
424.809	0.0150716
424.887	0.0151159
424.965	0.0149062
425.043	0.0148557
425.122	0.0149640
425.200	0.0149396
425.278	0.0150187
425.356	0.0150741
425.434	0.0150888
425.512	0.0149435
425.590	0.0149905
425.668	0.0149633
425.747	0.0150795
425.825	0.0147868
425.903	0.0149992
425.981	0.0150445
426.059	0.0150040
426.137	0.0149642
426.215	0.0150159
426.293	0.0149424
426.372	0.0149449
426.450	0.0150555
426.528	0.0149734
426.606	0.0149269
426.684	0.0149845
426.762	0.0150067
426.840	0.0149799
426.918	0.0150900
426.997	0.0151233
427.075	0.0151456
427.153	0.0149220
427.231	0.0150037
427.309	0.0151035
427.387	0.0150494
427.465	0.0150359
427.543	0.0150726
427.622	0.0149409
427.700	0.0150378
427.778	0.0151318
427.856	0.0150160
427.934	0.0149657
428.012	0.0151347
428.090	0.0151683
428.168	0.0149857
428.247	0.0150185
428.325	0.0150442
428.403	0.0149520
428.481	0.0150429
428.559	0.0149999
428.637	0.0149556
428.715	0.0149259
428.793	0.0150472
428.872	0.0150360
428.950	0.0150102
429.028	0.0150653
429.106	0.0148704
429.184	0.0149464
429.262	0.0150979
429.340	0.0150881
429.418	0.0150631
429.497	0.0150911
429.575	0.0150745
429.653	0.0149014
429.731	0.0150076
429.809	0.0150922
429.887	0.0150083
429.965	0.0150950
430.043	0.0151620
430.122	0.0150742
430.200	0.0151621
430.278	0.0150630
430.356	0.0151093
430.434	0.0150181
430.512	0.0151537
430.590	0.0150599
430.668	0.0149631
430.747	0.0150900
430.825	0.0151104
430.903	0.0150584
430.981	0.0150608
431.059	0.0150237
431.137	0.0149142
431.215	0.0148083
431.293	0.0150357
431.372	0.0150230
431.450	0.0150741
431.528	0.0149698
431.606	0.0149809
431.684	0.0149719
431.762	0.0149881
431.840	0.0149879
431.918	0.0148888
431.997	0.0149496
432.075	0.0151356
432.153	0.0148640
432.231	0.0149789
432.309	0.0150369
432.387	0.0150240
432.465	0.0149870
432.543	0.0149256
432.622	0.0150245
432.700	0.0149249
432.778	0.0149371
432.856	0.0150320
432.934	0.0150006
433.012	0.0151559
433.090	0.0151418
433.168	0.0150809
433.247	0.0150686
433.325	0.0149757
433.403	0.0149540
433.481	0.0150489
433.559	0.0150381
433.637	0.0150631
433.715	0.0151180
433.793	0.0150801
433.872	0.0150352
433.950	0.0150931
434.028	0.0150227
434.106	0.0150932
434.184	0.0150645
434.262	0.0151517
434.340	0.0150629
434.418	0.0150599
434.497	0.0151097
434.575	0.0150209
434.653	0.0151390
434.731	0.0149912
434.809	0.0150097
434.887	0.0150587
434.965	0.0150507
435.043	0.0150047
435.122	0.0150051
435.200	0.0150285
435.278	0.0149913
435.356	0.0150111
435.434	0.0150314
435.512	0.0150255
435.590	0.0150595
435.668	0.0148635
435.747	0.0149490
435.825	0.0151498
435.903	0.0150251
435.981	0.0149020
436.059	0.0151418
436.137	0.0150452
436.215	0.0151618
436.293	0.0150690
436.372	0.0151324
436.450	0.0149928
436.528	0.0149170
436.606	0.0150900
436.684	0.0150083
436.762	0.0151243
436.840	0.0150559
436.918	0.0151077
436.997	0.0150327
437.075	0.0151220
437.153	0.0149322
437.231	0.0149038
437.309	0.0149899
437.387	0.0149686
437.465	0.0149563
437.543	0.0150955
437.622	0.0151253
437.700	0.0150002
437.778	0.0149123
437.856	0.0148607
437.934	0.0149724
438.012	0.0149606
438.090	0.0150587
438.168	0.0148607
438.247	0.0149220
438.325	0.0150172
438.403	0.0150581
438.481	0.0150822
438.559	0.0149908
438.637	0.0149991
438.715	0.0149446
438.793	0.0150147
438.872	0.0149356
438.950	0.0148246
439.028	0.0149725
439.106	0.0149910
439.184	0.0150910
439.262	0.0150037
439.340	0.0149793
439.418	0.0149915
439.497	0.0150684
439.575	0.0149328
439.653	0.0150223
439.731	0.0150296
439.809	0.0150404
439.887	0.0150066
439.965	0.0149669
440.043	0.0150179
440.122	0.0149799
440.200	0.0149017
440.278	0.0149328
440.356	0.0148638
440.434	0.0149765
440.512	0.0150201
440.590	0.0149012
440.668	0.0151110
440.747	0.0148729
440.825	0.0150308
440.903	0.0150695
440.981	0.0149809
441.059	0.0149699
441.137	0.0150831
441.215	0.0149155
441.293	0.0149551
441.372	0.0149213
441.450	0.0149649
441.528	0.0147974
441.606	0.0149928
441.684	0.0149686
441.762	0.0148964
441.840	0.0149652
441.918	0.0151584
441.997	0.0151041
442.075	0.0149237
442.153	0.0148253
442.231	0.0149472
442.309	0.0150249
442.387	0.0148201
442.465	0.0148811
442.543	0.0150218
442.622	0.0149088
442.700	0.0150584
442.778	0.0150548
442.856	0.0151118
442.934	0.0150238
443.012	0.0150327
443.090	0.0151292
443.168	0.0149702
443.247	0.0151311
443.325	0.0149279
443.403	0.0150266
443.481	0.0149475
443.559	0.0149565
443.637	0.0151351
443.715	0.0151115
443.793	0.0150800
443.872	0.0149377
443.950	0.0150633
444.028	0.0150774
444.106	0.0148649
444.184	0.0151280
444.262	0.0148950
444.340	0.0149144
444.418	0.0150177
444.497	0.0148530
444.575	0.0151756
444.653	0.0150074
444.731	0.0149727
444.809	0.0150088
444.887	0.0148746
444.965	0.0149923
445.043	0.0150685
445.122	0.0150127
445.200	0.0151021
445.278	0.0150146
445.356	0.0150134
445.434	0.0150308
445.512	0.0149768
445.590	0.0149479
445.668	0.0149964
445.747	0.0151846
445.825	0.0150832
445.903	0.0149831
445.981	0.0150840
446.059	0.0150391
446.137	0.0150737
446.215	0.0150774
446.293	0.0150154
446.372	0.0151198
446.450	0.0150826
446.528	0.0150192
446.606	0.0151324
446.684	0.0149889
446.762	0.0150972
446.840	0.0151117
446.918	0.0149921
446.997	0.0151183
447.075	0.0150708
447.153	0.0151082
447.231	0.0149911
447.309	0.0149931
447.387	0.0149285
447.465	0.0150210
447.543	0.0150159
447.622	0.0149725
447.700	0.0149973
447.778	0.0149860
447.856	0.0150439
447.934	0.0149923
448.012	0.0150091
448.090	0.0150154
448.168	0.0149729
448.247	0.0149413
448.325	0.0151132
448.403	0.0150809
448.481	0.0149594
448.559	0.0149176
448.637	0.0149108
448.715	0.0150314
448.793	0.0150887
448.872	0.0150754
448.950	0.0151962
449.028	0.0152104
449.106	0.0149748
449.184	0.0149177
449.262	0.0150101
449.340	0.0151256
449.418	0.0149819
449.497	0.0149268
449.575	0.0151326
449.653	0.0150002
449.731	0.0149414
449.809	0.0150860
449.887	0.0151096
449.965	0.0151131
450.043	0.0150711
450.122	0.0149802
450.200	0.0149461
450.278	0.0150051
450.356	0.0151109
450.434	0.0151376
450.512	0.0150849
450.590	0.0150095
450.668	0.0150230
450.747	0.0150020
450.825	0.0150402
450.903	0.0149091
450.981	0.0149287
451.059	0.0150271
451.137	0.0151227
451.215	0.0150066
451.293	0.0149768
451.372	0.0150936
451.450	0.0149941
451.528	0.0150599
451.606	0.0151697
451.684	0.0150571
451.762	0.0149149
451.840	0.0150060
451.918	0.0149769
451.997	0.0149274
452.075	0.0151779
452.153	0.0152018
452.231	0.0149960
452.309	0.0149467
452.387	0.0149714
452.465	0.0150587
452.543	0.0150407
452.622	0.0149400
452.700	0.0149433
452.778	0.0149850
452.856	0.0150324
452.934	0.0150668
453.012	0.0149858
453.090	0.0149356
453.168	0.0149632
453.247	0.0149328
453.325	0.0150962
453.403	0.0150578
453.481	0.0149507
453.559	0.0149902
453.637	0.0151853
453.715	0.0151240
453.793	0.0148988
453.872	0.0150049
453.950	0.0151083
454.028	0.0149719
454.106	0.0150423
454.184	0.0149862
454.262	0.0150897
454.340	0.0149593
454.418	0.0149184
454.497	0.0149604
454.575	0.0151703
454.653	0.0151561
454.731	0.0151261
454.809	0.0151496
454.887	0.0150439
454.965	0.0149797
455.043	0.0151060
455.122	0.0149454
455.200	0.0151247
455.278	0.0150061
455.356	0.0151278
455.434	0.0150681
455.512	0.0151958
455.590	0.0151089
455.668	0.0150922
455.747	0.0150071
455.825	0.0149786
455.903	0.0150403
455.981	0.0151118
456.059	0.0151736
456.137	0.0151051
456.215	0.0150964
456.293	0.0149682
456.372	0.0151311
456.450	0.0150058
456.528	0.0149202
456.606	0.0149385
456.684	0.0150183
456.762	0.0151766
456.840	0.0148569
456.918	0.0149706
456.997	0.0150465
457.075	0.0149799
457.153	0.0150645
457.231	0.0151631
457.309	0.0150739
457.387	0.0150334
457.465	0.0149216
457.543	0.0149845
457.622	0.0150786
457.700	0.0150449
457.778	0.0151246
457.856	0.0150497
457.934	0.0150095
458.012	0.0149403
458.090	0.0150483
458.168	0.0150496
458.247	0.0150474
458.325	0.0150848
458.403	0.0149302
458.481	0.0149176
458.559	0.0149980
458.637	0.0151142
458.715	0.0151068
458.793	0.0150951
458.872	0.0150039
458.950	0.0150315
459.028	0.0150066
459.106	0.0149422
459.184	0.0150626
459.262	0.0150571
459.340	0.0151834
459.418	0.0150037
459.497	0.0151122
459.575	0.0150896
459.653	0.0151920
459.731	0.0151463
459.809	0.0151200
459.887	0.0150085
459.965	0.0150002
460.043	0.0150124
460.122	0.0151017
460.200	0.0150768
460.278	0.0150599
460.356	0.0150861
460.434	0.0150257
460.512	0.0149964
460.590	0.0150548
460.668	0.0150241
460.747	0.0151167
460.825	0.0151124
460.903	0.0150681
460.981	0.0150437
461.059	0.0150431
461.137	0.0150240
461.215	0.0150317
461.293	0.0150507
461.372	0.0150762
461.450	0.0150764
461.528	0.0149676
461.606	0.0150872
461.684	0.0150987
461.762	0.0150218
461.840	0.0150703
461.918	0.0150389
461.997	0.0149834
462.075	0.0149731
462.153	0.0150712
462.231	0.0150431
462.309	0.0150627
462.387	0.0151450
462.465	0.0149753
462.543	0.0149953
462.622	0.0150922
462.700	0.0150517
462.778	0.0150592
462.856	0.0152391
462.934	0.0152053
463.012	0.0149644
463.090	0.0151880
463.168	0.0149957
463.247	0.0150077
463.325	0.0150573
463.403	0.0150957
463.481	0.0150297
463.559	0.0148982
463.637	0.0151261
463.715	0.0151036
463.793	0.0150304
463.872	0.0150209
463.950	0.0149643
464.028	0.0148407
464.106	0.0150024
464.184	0.0150818
464.262	0.0149234
464.340	0.0150208
464.418	0.0150518
464.497	0.0149931
464.575	0.0149664
464.653	0.0150913
464.731	0.0149371
464.809	0.0148759
464.887	0.0148534
464.965	0.0150124
465.043	0.0150319
465.122	0.0150948
465.200	0.0148981
465.278	0.0149376
465.356	0.0149036
465.434	0.0149217
465.512	0.0150990
465.590	0.0150640
465.668	0.0149535
465.747	0.0149851
465.825	0.0150063
465.903	0.0149693
465.981	0.0149888
466.059	0.0149776
466.137	0.0148913
466.215	0.0149364
466.293	0.0150086
466.372	0.0150594
466.450	0.0149992
466.528	0.0149364
466.606	0.0148442
466.684	0.0148865
466.762	0.0150124
466.840	0.0150185
466.918	0.0150179
466.997	0.0150105
467.075	0.0150585
467.153	0.0149595
467.231	0.0149060
467.309	0.0150574
467.387	0.0149191
467.465	0.0149672
467.543	0.0149105
467.622	0.0151598
467.700	0.0150025
467.778	0.0150018
467.856	0.0149562
467.934	0.0149360
468.012	0.0151378
468.090	0.0150295
468.168	0.0149934
468.247	0.0150838
468.325	0.0151042
468.403	0.0151183
468.481	0.0150509
468.559	0.0149071
468.637	0.0150658
468.715	0.0151364
468.793	0.0149917
468.872	0.0150526
468.950	0.0149270
469.028	0.0149648
469.106	0.0150313
469.184	0.0150612
469.262	0.0150980
469.340	0.0149730
469.418	0.0149940
469.497	0.0150082
469.575	0.0151053
469.653	0.0150965
469.731	0.0149436
469.809	0.0151403
469.887	0.0150482
469.965	0.0150296
470.043	0.0150540
470.122	0.0149504
470.200	0.0150123
470.278	0.0150610
470.356	0.0150615
470.434	0.0149676
470.512	0.0150722
470.590	0.0150431
470.668	0.0151309
470.747	0.0151315
470.825	0.0150899
470.903	0.0151780
470.981	0.0150803
471.059	0.0150565
471.137	0.0150712
471.215	0.0150845
471.293	0.0150372
471.372	0.0149620
471.450	0.0150468
471.528	0.0151605
471.606	0.0150246
471.684	0.0150124
471.762	0.0149545
471.840	0.0150626
471.918	0.0150137
471.997	0.0150428
472.075	0.0150778
472.153	0.0150175
472.231	0.0149997
472.309	0.0150308
472.387	0.0150066
472.465	0.0149557
472.543	0.0149828
472.622	0.0150378
472.700	0.0150537
472.778	0.0151338
472.856	0.0149766
472.934	0.0151102
473.012	0.0151077
473.090	0.0150342
473.168	0.0150534
473.247	0.0150697
473.325	0.0150722
473.403	0.0151257
473.481	0.0149715
473.559	0.0150289
473.637	0.0150688
473.715	0.0149976
473.793	0.0150665
473.872	0.0150627
473.950	0.0149901
474.028	0.0150484
474.106	0.0150482
474.184	0.0148373
474.262	0.0150589
474.340	0.0150249
474.418	0.0150350
474.497	0.0150008
474.575	0.0149760
474.653	0.0150104
474.731	0.0150983
474.809	0.0150959
474.887	0.0151312
474.965	0.0150835
475.043	0.0150188
475.122	0.0150288
475.200	0.0149245
475.278	0.0149496
475.356	0.0150140
475.434	0.0149915
475.512	0.0150584
475.590	0.0150872
475.668	0.0150158
475.747	0.0151089
475.825	0.0149049
475.903	0.0150697
475.981	0.0149544
476.059	0.0151127
476.137	0.0151299
476.215	0.0150616
476.293	0.0150184
476.372	0.0151170
476.450	0.0151537
476.528	0.0150335
476.606	0.0149712
476.684	0.0151345
476.762	0.0150796
476.840	0.0151114
476.918	0.0150717
476.997	0.0150002
477.075	0.0149838
477.153	0.0149752
477.231	0.0149066
477.309	0.0149797
477.387	0.0150739
477.465	0.0151663
477.543	0.0150546
477.622	0.0148235
477.700	0.0150047
477.778	0.0149873
477.856	0.0149845
477.934	0.0150213
478.012	0.0149361
478.090	0.0149253
478.168	0.0150983
478.247	0.0150581
478.325	0.0150913
478.403	0.0151186
478.481	0.0149676
478.559	0.0150013
478.637	0.0149189
478.715	0.0150592
478.793	0.0150070
478.872	0.0150766
478.950	0.0150535
479.028	0.0149994
479.106	0.0150603
479.184	0.0149928
479.262	0.0149568
479.340	0.0149841
479.418	0.0149795
479.497	0.0149711
479.575	0.0150495
479.653	0.0150162
479.731	0.0150674
479.809	0.0151056
479.887	0.0150397
479.965	0.0151912
480.043	0.0149493
480.122	0.0148829
480.200	0.0151192
480.278	0.0150597
480.356	0.0149992
480.434	0.0150880
480.512	0.0150517
480.590	0.0150037
480.668	0.0150913
480.747	0.0150331
480.825	0.0150241
480.903	0.0149930
480.981	0.0150437
481.059	0.0150521
481.137	0.0150240
481.215	0.0149802
481.293	0.0148843
481.372	0.0150854
481.450	0.0150174
481.528	0.0149922
481.606	0.0150399
481.684	0.0150297
481.762	0.0151409
481.840	0.0149629
481.918	0.0149712
481.997	0.0150534
482.075	0.0150261
482.153	0.0150948
482.231	0.0151339
482.309	0.0149697
482.387	0.0149977
482.465	0.0151040
482.543	0.0149365
482.622	0.0150520
482.700	0.0149510
482.778	0.0150259
482.856	0.0149877
482.934	0.0149966
483.012	0.0149641
483.090	0.0151764
483.168	0.0151905
483.247	0.0150124
483.325	0.0150256
483.403	0.0149420
483.481	0.0150314
483.559	0.0150327
483.637	0.0150822
483.715	0.0149104
483.793	0.0150088
483.872	0.0151441
483.950	0.0150948
484.028	0.0150166
484.106	0.0150710
484.184	0.0149686
484.262	0.0150355
484.340	0.0151125
484.418	0.0150380
484.497	0.0151707
484.575	0.0151538
484.653	0.0151053
484.731	0.0151073
484.809	0.0148846
484.887	0.0149944
484.965	0.0151055
485.043	0.0150540
485.122	0.0150941
485.200	0.0151424
485.278	0.0150762
485.356	0.0150344
485.434	0.0149600
485.512	0.0150990
485.590	0.0150788
485.668	0.0150540
485.747	0.0150863
