05/19/2022	00:36:48	Ver.	4.1	UNKNOWN
Optical Delay	630.009178	Delta X		0.078125	Sweeps	1	Scan Rate	0/0
Coordinates	Axis 1	NaN	Axis 2	NaN	Axis 3	NaN	Axis 4	NaN	Axis 5	NaN	Axis 6	0.000000
TX Power	0.000000	RX Power	0.000000

630.009	0.0157888
630.087	0.0157413
630.165	0.0157678
630.244	0.0158448
630.322	0.0158252
630.400	0.0157962
630.478	0.0157941
630.556	0.0158215
630.634	0.0158606
630.712	0.0157376
630.790	0.0157793
630.869	0.0157655
630.947	0.0158566
631.025	0.0159114
631.103	0.0159059
631.181	0.0157990
631.259	0.0156906
631.337	0.0157996
631.415	0.0158311
631.494	0.0157604
631.572	0.0158514
631.650	0.0156856
631.728	0.0158025
631.806	0.0158615
631.884	0.0159127
631.962	0.0158466
632.040	0.0158093
632.119	0.0158532
632.197	0.0157957
632.275	0.0158587
632.353	0.0157565
632.431	0.0158165
632.509	0.0158403
632.587	0.0158315
632.665	0.0158178
632.744	0.0157894
632.822	0.0157573
632.900	0.0158497
632.978	0.0159529
633.056	0.0157425
633.134	0.0158036
633.212	0.0158723
633.290	0.0159003
633.369	0.0157095
633.447	0.0157881
633.525	0.0157508
633.603	0.0158561
633.681	0.0157996
633.759	0.0157037
633.837	0.0158517
633.915	0.0158138
633.994	0.0157181
634.072	0.0158047
634.150	0.0157265
634.228	0.0157540
634.306	0.0157937
634.384	0.0156313
634.462	0.0158032
634.540	0.0158253
634.619	0.0156889
634.697	0.0156752
634.775	0.0157508
634.853	0.0156248
634.931	0.0157969
635.009	0.0156857
635.087	0.0158374
635.165	0.0158732
635.244	0.0156925
635.322	0.0157854
635.400	0.0157953
635.478	0.0157777
635.556	0.0156580
635.634	0.0156963
635.712	0.0157001
635.790	0.0156992
635.869	0.0157999
635.947	0.0156975
636.025	0.0157844
636.103	0.0157938
636.181	0.0157594
636.259	0.0157791
636.337	0.0157497
636.415	0.0158397
636.494	0.0157617
636.572	0.0157457
636.650	0.0158768
636.728	0.0159221
636.806	0.0157771
636.884	0.0158775
636.962	0.0158153
637.040	0.0158185
637.119	0.0157939
637.197	0.0158730
637.275	0.0157401
637.353	0.0157574
637.431	0.0157853
637.509	0.0158044
637.587	0.0156409
637.665	0.0159861
637.744	0.0158600
637.822	0.0157391
637.900	0.0157154
637.978	0.0158498
638.056	0.0158291
638.134	0.0157844
638.212	0.0156696
638.290	0.0158815
638.369	0.0158276
638.447	0.0156986
638.525	0.0157983
638.603	0.0158554
638.681	0.0157855
638.759	0.0158236
638.837	0.0157947
638.915	0.0158122
638.994	0.0158247
639.072	0.0157740
639.150	0.0157825
639.228	0.0159344
639.306	0.0158692
639.384	0.0157873
639.462	0.0157663
639.540	0.0159281
639.619	0.0158298
639.697	0.0157750
639.775	0.0159298
639.853	0.0158037
639.931	0.0156686
640.009	0.0157719
640.087	0.0156921
640.165	0.0158669
640.244	0.0159520
640.322	0.0157998
640.400	0.0158057
640.478	0.0157537
640.556	0.0158148
640.634	0.0156498
640.712	0.0158772
640.790	0.0158253
640.869	0.0158322
640.947	0.0156656
641.025	0.0157464
641.103	0.0158846
641.181	0.0159220
641.259	0.0156789
641.337	0.0157137
641.415	0.0156873
641.494	0.0157218
641.572	0.0158595
641.650	0.0158786
641.728	0.0157794
641.806	0.0158029
641.884	0.0159401
641.962	0.0158145
642.040	0.0157026
642.119	0.0159106
642.197	0.0157822
642.275	0.0157986
642.353	0.0158016
642.431	0.0156658
642.509	0.0158428
642.587	0.0158555
642.665	0.0159093
642.744	0.0157916
642.822	0.0157983
642.900	0.0158585
642.978	0.0158753
643.056	0.0159026
643.134	0.0157902
643.212	0.0158360
643.290	0.0157710
643.369	0.0157039
643.447	0.0158770
643.525	0.0157597
643.603	0.0158302
643.681	0.0157684
643.759	0.0159316
643.837	0.0158031
643.915	0.0159224
643.994	0.0158170
644.072	0.0158289
644.150	0.0157774
644.228	0.0157205
644.306	0.0158874
644.384	0.0157449
644.462	0.0158480
644.540	0.0158006
644.619	0.0158472
644.697	0.0158041
644.775	0.0158936
644.853	0.0157507
644.931	0.0157557
645.009	0.0158022
645.087	0.0158810
645.165	0.0157849
645.244	0.0157453
645.322	0.0156978
645.400	0.0157802
645.478	0.0159402
645.556	0.0158377
645.634	0.0157823
645.712	0.0157512
645.790	0.0158430
645.869	0.0156957
645.947	0.0157624
646.025	0.0157893
646.103	0.0158479
646.181	0.0159378
646.259	0.0158453
646.337	0.0157454
646.415	0.0157346
646.494	0.0158588
646.572	0.0157320
646.650	0.0158495
646.728	0.0158089
646.806	0.0159026
646.884	0.0157831
646.962	0.0158996
647.040	0.0158192
647.119	0.0158787
647.197	0.0157610
647.275	0.0157600
647.353	0.0159180
647.431	0.0158305
647.509	0.0157526
647.587	0.0158793
647.665	0.0157926
647.744	0.0158369
647.822	0.0158366
647.900	0.0157385
647.978	0.0157945
648.056	0.0158480
648.134	0.0159623
648.212	0.0157473
648.290	0.0157884
648.369	0.0159035
648.447	0.0158340
648.525	0.0158924
648.603	0.0158562
648.681	0.0157443
648.759	0.0158050
648.837	0.0157794
648.915	0.0157291
648.994	0.0158293
649.072	0.0157006
649.150	0.0156538
649.228	0.0157524
649.306	0.0156992
649.384	0.0157829
649.462	0.0158185
649.540	0.0157411
649.619	0.0158029
649.697	0.0158133
649.775	0.0157581
649.853	0.0158203
649.931	0.0158246
650.009	0.0157991
650.087	0.0157705
650.165	0.0157959
650.244	0.0157191
650.322	0.0158315
650.400	0.0157693
650.478	0.0158191
650.556	0.0156859
650.634	0.0157976
650.712	0.0157014
650.790	0.0158155
650.869	0.0158754
650.947	0.0158910
651.025	0.0158098
651.103	0.0157658
651.181	0.0157265
651.259	0.0158693
651.337	0.0158162
651.415	0.0157458
651.494	0.0156813
651.572	0.0157083
651.650	0.0159543
651.728	0.0158036
651.806	0.0158334
651.884	0.0158811
651.962	0.0157378
652.040	0.0156894
652.119	0.0157795
652.197	0.0158180
652.275	0.0158923
652.353	0.0156728
652.431	0.0158338
652.509	0.0158209
652.587	0.0158816
652.665	0.0158164
652.744	0.0158282
652.822	0.0158602
652.900	0.0157941
652.978	0.0159161
653.056	0.0157034
653.134	0.0158133
653.212	0.0157780
653.290	0.0158397
653.369	0.0158980
653.447	0.0156822
653.525	0.0157645
653.603	0.0158426
653.681	0.0157844
653.759	0.0158448
653.837	0.0158521
653.915	0.0158615
653.994	0.0157691
654.072	0.0158724
654.150	0.0157461
654.228	0.0157016
654.306	0.0157745
654.384	0.0157816
654.462	0.0158300
654.540	0.0157398
654.619	0.0158193
654.697	0.0157789
654.775	0.0158166
654.853	0.0158632
654.931	0.0157380
655.009	0.0157274
655.087	0.0157785
655.165	0.0158405
655.244	0.0158457
655.322	0.0157640
655.400	0.0158731
655.478	0.0159094
655.556	0.0158998
655.634	0.0156680
655.712	0.0157427
655.790	0.0158809
655.869	0.0159103
655.947	0.0157957
656.025	0.0158018
656.103	0.0158479
656.181	0.0158692
656.259	0.0157121
656.337	0.0157626
656.415	0.0157867
656.494	0.0156955
656.572	0.0158076
656.650	0.0157520
656.728	0.0158013
656.806	0.0158582
656.884	0.0157002
656.962	0.0157512
657.040	0.0157711
657.119	0.0155906
657.197	0.0159350
657.275	0.0156955
657.353	0.0157237
657.431	0.0157401
657.509	0.0156770
657.587	0.0157861
657.665	0.0157386
657.744	0.0157149
657.822	0.0157654
657.900	0.0157772
657.978	0.0157494
658.056	0.0157447
658.134	0.0158734
658.212	0.0158366
658.290	0.0155758
658.369	0.0157818
658.447	0.0158207
658.525	0.0156878
658.603	0.0158167
658.681	0.0156787
658.759	0.0157584
658.837	0.0158112
658.915	0.0157336
658.994	0.0156981
659.072	0.0157185
659.150	0.0158378
659.228	0.0158091
659.306	0.0158009
659.384	0.0157604
659.462	0.0156743
659.540	0.0157437
659.619	0.0157881
659.697	0.0157082
659.775	0.0158006
659.853	0.0157516
659.931	0.0156544
660.009	0.0158716
660.087	0.0157868
660.165	0.0157953
660.244	0.0157255
660.322	0.0157045
660.400	0.0157979
660.478	0.0157023
660.556	0.0157961
660.634	0.0157282
660.712	0.0157464
660.790	0.0158141
660.869	0.0156587
660.947	0.0157028
661.025	0.0156912
661.103	0.0157716
661.181	0.0156630
661.259	0.0157263
661.337	0.0158130
661.415	0.0157397
661.494	0.0157783
661.572	0.0156757
661.650	0.0158073
661.728	0.0156332
661.806	0.0158234
661.884	0.0156868
661.962	0.0157841
662.040	0.0156030
662.119	0.0157687
662.197	0.0157967
662.275	0.0158401
662.353	0.0158455
662.431	0.0156728
662.509	0.0156693
662.587	0.0158389
662.665	0.0157836
662.744	0.0156685
662.822	0.0156334
662.900	0.0158527
662.978	0.0157061
663.056	0.0156792
663.134	0.0157770
663.212	0.0157616
663.290	0.0158379
663.369	0.0157818
663.447	0.0157523
663.525	0.0157072
663.603	0.0156028
663.681	0.0157612
663.759	0.0157004
663.837	0.0157945
663.915	0.0158056
663.994	0.0158114
664.072	0.0157738
664.150	0.0157124
664.228	0.0157702
664.306	0.0156788
664.384	0.0156776
664.462	0.0157759
664.540	0.0158171
664.619	0.0158572
664.697	0.0158586
664.775	0.0158831
664.853	0.0159591
664.931	0.0156434
665.009	0.0158117
665.087	0.0158551
665.165	0.0157069
665.244	0.0158208
665.322	0.0157510
665.400	0.0157089
665.478	0.0157453
665.556	0.0157937
665.634	0.0158260
665.712	0.0158432
665.790	0.0158250
665.869	0.0157436
665.947	0.0159377
666.025	0.0158432
666.103	0.0158588
666.181	0.0158500
666.259	0.0159982
666.337	0.0159711
666.415	0.0159099
666.494	0.0158968
666.572	0.0159447
666.650	0.0158593
666.728	0.0158269
666.806	0.0160074
666.884	0.0158760
666.962	0.0159484
667.040	0.0158976
667.119	0.0158405
667.197	0.0158036
667.275	0.0160201
667.353	0.0159016
667.431	0.0159196
667.509	0.0158537
667.587	0.0158401
667.665	0.0158821
667.744	0.0157951
667.822	0.0159387
667.900	0.0159003
667.978	0.0158447
668.056	0.0158174
668.134	0.0160102
668.212	0.0159756
668.290	0.0158292
668.369	0.0158578
668.447	0.0159181
668.525	0.0160161
668.603	0.0159580
668.681	0.0160226
668.759	0.0159293
668.837	0.0158372
668.915	0.0159290
668.994	0.0160335
669.072	0.0159974
669.150	0.0160207
669.228	0.0160767
669.306	0.0160913
669.384	0.0159303
669.462	0.0159425
669.540	0.0159789
669.619	0.0160625
669.697	0.0157789
669.775	0.0159779
669.853	0.0160061
669.931	0.0160449
670.009	0.0159309
670.087	0.0159122
670.165	0.0159348
670.244	0.0159955
670.322	0.0159835
670.400	0.0159451
670.478	0.0157664
670.556	0.0158568
670.634	0.0159818
670.712	0.0159112
670.790	0.0159697
670.869	0.0159045
670.947	0.0159269
671.025	0.0158655
671.103	0.0159010
671.181	0.0159425
671.259	0.0160038
671.337	0.0158968
671.415	0.0158581
671.494	0.0159172
671.572	0.0158403
671.650	0.0160020
671.728	0.0159351
671.806	0.0158324
671.884	0.0158769
671.962	0.0158840
672.040	0.0158488
672.119	0.0157807
672.197	0.0159307
672.275	0.0159487
672.353	0.0159186
672.431	0.0158595
672.509	0.0159185
672.587	0.0156928
672.665	0.0158497
672.744	0.0158804
672.822	0.0159127
672.900	0.0159144
672.978	0.0158565
673.056	0.0158279
673.134	0.0157163
673.212	0.0157915
673.290	0.0158107
673.369	0.0157676
673.447	0.0156689
673.525	0.0157450
673.603	0.0157182
673.681	0.0157216
673.759	0.0157308
673.837	0.0157021
673.915	0.0158039
673.994	0.0156253
674.072	0.0156088
674.150	0.0157220
674.228	0.0157019
674.306	0.0156890
674.384	0.0157138
674.462	0.0157365
674.540	0.0157466
674.619	0.0155933
674.697	0.0157267
674.775	0.0157779
674.853	0.0157125
674.931	0.0157457
675.009	0.0156860
675.087	0.0155910
675.165	0.0155832
675.244	0.0157021
675.322	0.0156855
675.400	0.0156432
675.478	0.0156110
675.556	0.0156712
675.634	0.0157108
675.712	0.0157734
675.790	0.0157707
675.869	0.0157282
675.947	0.0156689
676.025	0.0157306
676.103	0.0157607
676.181	0.0157093
676.259	0.0157364
676.337	0.0157249
676.415	0.0157466
676.494	0.0156341
676.572	0.0156691
676.650	0.0157590
676.728	0.0156702
676.806	0.0157953
676.884	0.0157172
676.962	0.0158574
677.040	0.0157107
677.119	0.0156623
677.197	0.0156326
677.275	0.0157755
677.353	0.0156360
677.431	0.0156837
677.509	0.0158116
677.587	0.0158468
677.665	0.0157913
677.744	0.0157308
677.822	0.0157782
677.900	0.0157642
677.978	0.0157127
678.056	0.0157956
678.134	0.0157655
678.212	0.0157565
678.290	0.0159053
678.369	0.0159430
678.447	0.0157222
678.525	0.0158788
678.603	0.0157687
678.681	0.0158333
678.759	0.0160437
678.837	0.0158936
678.915	0.0157709
678.994	0.0159036
679.072	0.0158083
679.150	0.0156824
679.228	0.0157359
679.306	0.0158447
679.384	0.0159915
679.462	0.0158944
679.540	0.0158408
679.619	0.0157745
679.697	0.0157517
679.775	0.0158541
679.853	0.0158968
679.931	0.0157170
680.009	0.0157858
680.087	0.0159730
680.165	0.0157609
680.244	0.0158051
680.322	0.0158518
680.400	0.0157690
680.478	0.0157735
680.556	0.0158016
680.634	0.0158775
680.712	0.0158356
680.790	0.0158286
680.869	0.0157656
680.947	0.0158675
681.025	0.0158369
681.103	0.0157357
681.181	0.0158679
681.259	0.0160802
681.337	0.0158068
681.415	0.0158324
681.494	0.0156405
681.572	0.0158304
681.650	0.0159332
681.728	0.0157159
681.806	0.0157626
681.884	0.0158062
681.962	0.0157720
682.040	0.0158416
682.119	0.0158858
682.197	0.0157926
682.275	0.0157323
682.353	0.0158983
682.431	0.0157664
682.509	0.0157349
682.587	0.0159426
682.665	0.0159456
682.744	0.0157478
682.822	0.0158146
682.900	0.0158833
682.978	0.0159187
683.056	0.0160025
683.134	0.0159475
683.212	0.0159313
683.290	0.0160204
683.369	0.0158353
683.447	0.0157315
683.525	0.0155649
683.603	0.0155811
683.681	0.0153431
683.759	0.0154149
683.837	0.0152639
683.915	0.0150427
683.994	0.0150686
684.072	0.0150768
684.150	0.0150092
684.228	0.0151057
684.306	0.0149847
684.384	0.0151203
684.462	0.0153905
684.540	0.0156026
684.619	0.0156690
684.697	0.0159927
684.775	0.0161425
684.853	0.0163447
684.931	0.0164843
685.009	0.0167300
685.087	0.0167636
685.165	0.0168229
685.244	0.0168824
685.322	0.0168411
685.400	0.0167863
685.478	0.0166539
685.556	0.0164558
685.634	0.0163322
685.712	0.0160458
685.790	0.0158282
685.869	0.0156711
685.947	0.0154047
686.025	0.0154397
686.103	0.0152249
686.181	0.0149591
686.259	0.0149554
686.337	0.0147728
686.415	0.0148946
686.494	0.0148608
686.572	0.0149425
686.650	0.0151651
686.728	0.0152021
686.806	0.0154889
686.884	0.0154581
686.962	0.0156272
687.040	0.0159709
687.119	0.0160369
687.197	0.0161339
687.275	0.0164053
687.353	0.0165302
687.431	0.0167233
687.509	0.0168051
687.587	0.0169866
687.665	0.0169953
687.744	0.0170537
687.822	0.0170389
687.900	0.0170353
687.978	0.0169559
688.056	0.0167336
688.134	0.0164719
688.212	0.0164171
688.290	0.0159402
688.369	0.0157723
688.447	0.0155926
688.525	0.0154405
688.603	0.0152084
688.681	0.0147600
688.759	0.0147043
688.837	0.0144353
688.915	0.0144602
688.994	0.0143204
689.072	0.0143579
689.150	0.0142811
689.228	0.0143530
689.306	0.0146614
689.384	0.0148790
689.462	0.0149407
689.540	0.0151717
689.619	0.0152703
689.697	0.0156662
689.775	0.0158662
689.853	0.0160783
689.931	0.0164398
690.009	0.0165160
690.087	0.0165839
690.165	0.0169234
690.244	0.0171021
690.322	0.0170831
690.400	0.0172412
690.478	0.0170805
690.556	0.0173402
690.634	0.0173839
690.712	0.0171091
690.790	0.0169961
690.869	0.0169566
690.947	0.0166465
691.025	0.0165849
691.103	0.0161801
691.181	0.0160191
691.259	0.0159603
691.337	0.0156480
691.415	0.0154589
691.494	0.0153317
691.572	0.0151186
691.650	0.0149593
691.728	0.0149363
691.806	0.0150372
691.884	0.0148910
691.962	0.0149406
692.040	0.0148042
692.119	0.0150114
692.197	0.0150256
692.275	0.0150761
692.353	0.0150819
692.431	0.0151735
692.509	0.0153544
692.587	0.0153844
692.665	0.0153899
692.744	0.0154015
692.822	0.0155535
692.900	0.0155763
692.978	0.0156775
693.056	0.0155840
693.134	0.0154490
693.212	0.0157223
693.290	0.0157066
693.369	0.0157043
693.447	0.0154881
693.525	0.0157535
693.603	0.0157829
693.681	0.0157948
693.759	0.0158359
693.837	0.0158134
693.915	0.0159212
693.994	0.0159563
694.072	0.0160125
694.150	0.0160307
694.228	0.0161021
694.306	0.0162835
694.384	0.0162631
694.462	0.0163316
694.540	0.0162834
694.619	0.0163967
694.697	0.0163106
694.775	0.0164445
694.853	0.0163618
694.931	0.0162062
695.009	0.0162853
695.087	0.0162454
695.165	0.0161862
695.244	0.0162519
695.322	0.0161612
695.400	0.0160525
695.478	0.0161172
695.556	0.0159839
695.634	0.0159679
695.712	0.0158721
695.790	0.0158503
695.869	0.0157415
695.947	0.0156446
696.025	0.0157452
696.103	0.0158481
696.181	0.0159000
696.259	0.0159651
696.337	0.0159053
696.415	0.0158060
696.494	0.0160040
696.572	0.0161014
696.650	0.0160918
696.728	0.0159933
696.806	0.0159997
696.884	0.0159310
696.962	0.0157588
697.040	0.0158044
697.119	0.0157419
697.197	0.0157678
697.275	0.0158836
697.353	0.0155441
697.431	0.0156017
697.509	0.0156445
697.587	0.0156371
697.665	0.0156604
697.744	0.0156209
697.822	0.0157710
697.900	0.0158344
697.978	0.0158632
698.056	0.0160905
698.134	0.0160001
698.212	0.0161526
698.290	0.0164051
698.369	0.0163887
698.447	0.0163942
698.525	0.0165318
698.603	0.0165085
698.681	0.0165966
698.759	0.0164273
698.837	0.0165696
698.915	0.0164705
698.994	0.0161617
699.072	0.0162538
699.150	0.0161175
699.228	0.0159740
699.306	0.0158711
699.384	0.0158316
699.462	0.0155434
699.540	0.0154887
699.619	0.0152068
699.697	0.0151223
699.775	0.0151575
699.853	0.0150784
699.931	0.0150114
700.009	0.0149921
700.087	0.0150674
700.165	0.0149709
700.244	0.0152709
700.322	0.0153707
700.400	0.0153499
700.478	0.0154482
700.556	0.0155663
700.634	0.0157256
700.712	0.0158125
700.790	0.0158344
700.869	0.0159428
700.947	0.0160612
701.025	0.0160001
701.103	0.0159090
701.181	0.0159374
701.259	0.0159026
701.337	0.0158180
701.415	0.0158641
701.494	0.0156406
701.572	0.0155282
701.650	0.0156984
701.728	0.0156302
701.806	0.0157158
701.884	0.0155269
701.962	0.0155585
702.040	0.0155811
702.119	0.0155013
702.197	0.0156002
702.275	0.0157455
702.353	0.0157746
702.431	0.0158904
702.509	0.0158495
702.587	0.0159087
702.665	0.0159485
702.744	0.0160318
702.822	0.0161205
702.900	0.0161407
702.978	0.0162331
703.056	0.0161071
703.134	0.0160355
703.212	0.0161178
703.290	0.0160978
703.369	0.0159496
703.447	0.0159917
703.525	0.0159901
703.603	0.0158762
703.681	0.0159401
703.759	0.0157234
703.837	0.0157274
703.915	0.0157095
703.994	0.0155698
704.072	0.0155945
704.150	0.0155253
704.228	0.0154912
704.306	0.0156171
704.384	0.0156129
704.462	0.0156828
704.540	0.0157002
704.619	0.0157841
704.697	0.0159901
704.775	0.0160676
704.853	0.0161530
704.931	0.0161638
705.009	0.0162352
705.087	0.0162127
705.165	0.0162912
705.244	0.0162222
705.322	0.0162966
705.400	0.0161143
705.478	0.0162558
705.556	0.0161224
705.634	0.0161263
705.712	0.0160979
705.790	0.0159064
705.869	0.0159536
705.947	0.0158825
706.025	0.0158176
706.103	0.0156427
706.181	0.0156719
706.259	0.0155281
706.337	0.0155004
706.415	0.0154287
706.494	0.0154025
706.572	0.0153852
706.650	0.0154030
706.728	0.0156138
706.806	0.0155891
706.884	0.0157150
706.962	0.0158763
707.040	0.0158268
707.119	0.0158520
707.197	0.0159153
707.275	0.0160506
707.353	0.0160003
707.431	0.0160531
707.509	0.0159651
707.587	0.0160004
707.665	0.0158970
707.744	0.0158749
707.822	0.0159271
707.900	0.0158392
707.978	0.0158846
708.056	0.0157030
708.134	0.0157854
708.212	0.0158749
708.290	0.0156595
708.369	0.0155832
708.447	0.0156480
708.525	0.0157310
708.603	0.0156988
708.681	0.0156232
708.759	0.0156905
708.837	0.0155338
708.915	0.0156612
708.994	0.0157171
709.072	0.0157111
709.150	0.0158906
709.228	0.0159136
709.306	0.0158525
709.384	0.0159320
709.462	0.0157860
709.540	0.0158749
709.619	0.0157499
709.697	0.0158344
709.775	0.0158427
709.853	0.0157702
709.931	0.0156131
710.009	0.0156193
710.087	0.0157635
710.165	0.0157829
710.244	0.0157642
710.322	0.0157697
710.400	0.0158614
710.478	0.0159177
710.556	0.0158330
710.634	0.0159362
710.712	0.0159415
710.790	0.0158210
710.869	0.0157028
710.947	0.0158925
711.025	0.0157223
711.103	0.0156555
711.181	0.0156397
711.259	0.0156283
711.337	0.0156377
711.415	0.0157406
711.494	0.0156400
711.572	0.0157079
711.650	0.0157417
711.728	0.0156988
711.806	0.0158450
711.884	0.0157233
711.962	0.0156333
712.040	0.0157570
712.119	0.0157082
712.197	0.0155962
712.275	0.0157146
712.353	0.0156410
712.431	0.0156458
712.509	0.0156326
712.587	0.0155893
712.665	0.0154919
712.744	0.0156411
712.822	0.0156671
712.900	0.0157883
712.978	0.0155967
713.056	0.0157159
713.134	0.0155600
713.212	0.0156417
713.290	0.0156087
713.369	0.0154328
713.447	0.0153742
713.525	0.0155186
713.603	0.0154303
713.681	0.0154811
713.759	0.0154992
713.837	0.0155121
713.915	0.0156306
713.994	0.0157599
714.072	0.0158753
714.150	0.0159206
714.228	0.0157992
714.306	0.0159550
714.384	0.0160098
714.462	0.0160961
714.540	0.0161542
714.619	0.0160768
714.697	0.0162065
714.775	0.0161980
714.853	0.0162463
714.931	0.0162181
715.009	0.0162886
715.087	0.0161999
715.165	0.0162202
715.244	0.0161234
715.322	0.0160206
715.400	0.0161565
715.478	0.0159875
715.556	0.0159014
715.634	0.0158389
715.712	0.0158331
