05/19/2022	00:37:53	Ver.	4.1	UNKNOWN
Optical Delay	630.009178	Delta X		0.078125	Sweeps	1	Scan Rate	0/0
Coordinates	Axis 1	NaN	Axis 2	NaN	Axis 3	NaN	Axis 4	NaN	Axis 5	NaN	Axis 6	0.000000
TX Power	0.000000	RX Power	0.000000

630.009	0.0158600
630.087	0.0159660
630.165	0.0157994
630.244	0.0157293
630.322	0.0158231
630.400	0.0158865
630.478	0.0159013
630.556	0.0158826
630.634	0.0158524
630.712	0.0157560
630.790	0.0159575
630.869	0.0158205
630.947	0.0158993
631.025	0.0159364
631.103	0.0157975
631.181	0.0160056
631.259	0.0158160
631.337	0.0158514
631.415	0.0157012
631.494	0.0158916
631.572	0.0159056
631.650	0.0158295
631.728	0.0157726
631.806	0.0158419
631.884	0.0157748
631.962	0.0159395
632.040	0.0159299
632.119	0.0158005
632.197	0.0157980
632.275	0.0157799
632.353	0.0158377
632.431	0.0159300
632.509	0.0158543
632.587	0.0159421
632.665	0.0159193
632.744	0.0157587
632.822	0.0158647
632.900	0.0157742
632.978	0.0157182
633.056	0.0159128
633.134	0.0158786
633.212	0.0158632
633.290	0.0160354
633.369	0.0159246
633.447	0.0157156
633.525	0.0157581
633.603	0.0158965
633.681	0.0158246
633.759	0.0157806
633.837	0.0158358
633.915	0.0158414
633.994	0.0157958
634.072	0.0158626
634.150	0.0158125
634.228	0.0157671
634.306	0.0158595
634.384	0.0157993
634.462	0.0158789
634.540	0.0158416
634.619	0.0158676
634.697	0.0159090
634.775	0.0158402
634.853	0.0158160
634.931	0.0158067
635.009	0.0157571
635.087	0.0159584
635.165	0.0158463
635.244	0.0158765
635.322	0.0160505
635.400	0.0158024
635.478	0.0158498
635.556	0.0158340
635.634	0.0158461
635.712	0.0158364
635.790	0.0158437
635.869	0.0158908
635.947	0.0159519
636.025	0.0157596
636.103	0.0157922
636.181	0.0156688
636.259	0.0157363
636.337	0.0158823
636.415	0.0157584
636.494	0.0159332
636.572	0.0158079
636.650	0.0158039
636.728	0.0158515
636.806	0.0157897
636.884	0.0158498
636.962	0.0158144
637.040	0.0158765
637.119	0.0158546
637.197	0.0157909
637.275	0.0158783
637.353	0.0158170
637.431	0.0158341
637.509	0.0158302
637.587	0.0158525
637.665	0.0158318
637.744	0.0158132
637.822	0.0157751
637.900	0.0158199
637.978	0.0158081
638.056	0.0158336
638.134	0.0160175
638.212	0.0159383
638.290	0.0159036
638.369	0.0159084
638.447	0.0157635
638.525	0.0157785
638.603	0.0157341
638.681	0.0158778
638.759	0.0158667
638.837	0.0157941
638.915	0.0159011
638.994	0.0159113
639.072	0.0159109
639.150	0.0158144
639.228	0.0158533
639.306	0.0157488
639.384	0.0158192
639.462	0.0158179
639.540	0.0158266
639.619	0.0159276
639.697	0.0158390
639.775	0.0156781
639.853	0.0159399
639.931	0.0159103
640.009	0.0158321
640.087	0.0157520
640.165	0.0158740
640.244	0.0157862
640.322	0.0158320
640.400	0.0158175
640.478	0.0157470
640.556	0.0159196
640.634	0.0157749
640.712	0.0158819
640.790	0.0158165
640.869	0.0158944
640.947	0.0159190
641.025	0.0158486
641.103	0.0158963
641.181	0.0158733
641.259	0.0159507
641.337	0.0158459
641.415	0.0158159
641.494	0.0158580
641.572	0.0160087
641.650	0.0157944
641.728	0.0158994
641.806	0.0159377
641.884	0.0159111
641.962	0.0158306
642.040	0.0158565
642.119	0.0158064
642.197	0.0159039
642.275	0.0158865
642.353	0.0157989
642.431	0.0159703
642.509	0.0158958
642.587	0.0158435
642.665	0.0156844
642.744	0.0157406
642.822	0.0158541
642.900	0.0159100
642.978	0.0157072
643.056	0.0158196
643.134	0.0158748
643.212	0.0158081
643.290	0.0158630
643.369	0.0157609
643.447	0.0159037
643.525	0.0158710
643.603	0.0159567
643.681	0.0157709
643.759	0.0157867
643.837	0.0157345
643.915	0.0157508
643.994	0.0158223
644.072	0.0158222
644.150	0.0159092
644.228	0.0158180
644.306	0.0157595
644.384	0.0158015
644.462	0.0157214
644.540	0.0157539
644.619	0.0158704
644.697	0.0158659
644.775	0.0159519
644.853	0.0158835
644.931	0.0158676
645.009	0.0157746
645.087	0.0158459
645.165	0.0158871
645.244	0.0157619
645.322	0.0157339
645.400	0.0159495
645.478	0.0157719
645.556	0.0159422
645.634	0.0157607
645.712	0.0158884
645.790	0.0158991
645.869	0.0160147
645.947	0.0158961
646.025	0.0159957
646.103	0.0157281
646.181	0.0160592
646.259	0.0159221
646.337	0.0158916
646.415	0.0157133
646.494	0.0158195
646.572	0.0158907
646.650	0.0158401
646.728	0.0157812
646.806	0.0157417
646.884	0.0157834
646.962	0.0158638
647.040	0.0158604
647.119	0.0159230
647.197	0.0158128
647.275	0.0156944
647.353	0.0158505
647.431	0.0158971
647.509	0.0157527
647.587	0.0158155
647.665	0.0156847
647.744	0.0158917
647.822	0.0158228
647.900	0.0158212
647.978	0.0156908
648.056	0.0157462
648.134	0.0158554
648.212	0.0157027
648.290	0.0156961
648.369	0.0156861
648.447	0.0157408
648.525	0.0159305
648.603	0.0160211
648.681	0.0157125
648.759	0.0157296
648.837	0.0159246
648.915	0.0159573
648.994	0.0158136
649.072	0.0157702
649.150	0.0157784
649.228	0.0157793
649.306	0.0157813
649.384	0.0158359
649.462	0.0157367
649.540	0.0158212
649.619	0.0158726
649.697	0.0159309
649.775	0.0158852
649.853	0.0158411
649.931	0.0157099
650.009	0.0157925
650.087	0.0157524
650.165	0.0158814
650.244	0.0158060
650.322	0.0158831
650.400	0.0158949
650.478	0.0158231
650.556	0.0157121
650.634	0.0158298
650.712	0.0157490
650.790	0.0158291
650.869	0.0158799
650.947	0.0158928
651.025	0.0157565
651.103	0.0159018
651.181	0.0158286
651.259	0.0157771
651.337	0.0159548
651.415	0.0158420
651.494	0.0157150
651.572	0.0157590
651.650	0.0157310
651.728	0.0157867
651.806	0.0157690
651.884	0.0157435
651.962	0.0158804
652.040	0.0158070
652.119	0.0157591
652.197	0.0157368
652.275	0.0158358
652.353	0.0158530
652.431	0.0157964
652.509	0.0156573
652.587	0.0158255
652.665	0.0158469
652.744	0.0159081
652.822	0.0157100
652.900	0.0159033
652.978	0.0157928
653.056	0.0157433
653.134	0.0158755
653.212	0.0157835
653.290	0.0157773
653.369	0.0159335
653.447	0.0158672
653.525	0.0158340
653.603	0.0159143
653.681	0.0156940
653.759	0.0156503
653.837	0.0157468
653.915	0.0158333
653.994	0.0157975
654.072	0.0159135
654.150	0.0158604
654.228	0.0158559
654.306	0.0158398
654.384	0.0157541
654.462	0.0158623
654.540	0.0156862
654.619	0.0157240
654.697	0.0158218
654.775	0.0157898
654.853	0.0158124
654.931	0.0157880
655.009	0.0158749
655.087	0.0157695
655.165	0.0157578
655.244	0.0156821
655.322	0.0157647
655.400	0.0158927
655.478	0.0158842
655.556	0.0157916
655.634	0.0157713
655.712	0.0157345
655.790	0.0157316
655.869	0.0158652
655.947	0.0158182
656.025	0.0157379
656.103	0.0157390
656.181	0.0158443
656.259	0.0158434
656.337	0.0158705
656.415	0.0157037
656.494	0.0156790
656.572	0.0159238
656.650	0.0158094
656.728	0.0157348
656.806	0.0157411
656.884	0.0158511
656.962	0.0158102
657.040	0.0158739
657.119	0.0157796
657.197	0.0157993
657.275	0.0157502
657.353	0.0160478
657.431	0.0158238
657.509	0.0157493
657.587	0.0158115
657.665	0.0158273
657.744	0.0158649
657.822	0.0157192
657.900	0.0157338
657.978	0.0156765
658.056	0.0158841
658.134	0.0158960
658.212	0.0156815
658.290	0.0157740
658.369	0.0157448
658.447	0.0157758
658.525	0.0158475
658.603	0.0158475
658.681	0.0157090
658.759	0.0158344
658.837	0.0157126
658.915	0.0158171
658.994	0.0157857
659.072	0.0157749
659.150	0.0158024
659.228	0.0157385
659.306	0.0157233
659.384	0.0158715
659.462	0.0159446
659.540	0.0158215
659.619	0.0158756
659.697	0.0158511
659.775	0.0156700
659.853	0.0159036
659.931	0.0158110
660.009	0.0156509
660.087	0.0157555
660.165	0.0159783
660.244	0.0158346
660.322	0.0157775
660.400	0.0158997
660.478	0.0159652
660.556	0.0158630
660.634	0.0158202
660.712	0.0157320
660.790	0.0158364
660.869	0.0157959
660.947	0.0157018
661.025	0.0158058
661.103	0.0158559
661.181	0.0158681
661.259	0.0158754
661.337	0.0158219
661.415	0.0157018
661.494	0.0157745
661.572	0.0158913
661.650	0.0157745
661.728	0.0157460
661.806	0.0157597
661.884	0.0158096
661.962	0.0157926
662.040	0.0158916
662.119	0.0156884
662.197	0.0157854
662.275	0.0158657
662.353	0.0158287
662.431	0.0157275
662.509	0.0157784
662.587	0.0156915
662.665	0.0157273
662.744	0.0158448
662.822	0.0158231
662.900	0.0158970
662.978	0.0158763
663.056	0.0156081
663.134	0.0157919
663.212	0.0157633
663.290	0.0158690
663.369	0.0158410
663.447	0.0158684
663.525	0.0158577
663.603	0.0157211
663.681	0.0157664
663.759	0.0157104
663.837	0.0159356
663.915	0.0158689
663.994	0.0156263
664.072	0.0159113
664.150	0.0158740
664.228	0.0158923
664.306	0.0159245
664.384	0.0157477
664.462	0.0159738
664.540	0.0158670
664.619	0.0158141
664.697	0.0158979
664.775	0.0158485
664.853	0.0158468
664.931	0.0159029
665.009	0.0158008
665.087	0.0158953
665.165	0.0159167
665.244	0.0160306
665.322	0.0159673
665.400	0.0158222
665.478	0.0158727
665.556	0.0159108
665.634	0.0158537
665.712	0.0157595
665.790	0.0158916
665.869	0.0158931
665.947	0.0158453
666.025	0.0159439
666.103	0.0158844
666.181	0.0159233
666.259	0.0157795
666.337	0.0157478
666.415	0.0159804
666.494	0.0159425
666.572	0.0159115
666.650	0.0158594
666.728	0.0157903
666.806	0.0159426
666.884	0.0159374
666.962	0.0159511
667.040	0.0161340
667.119	0.0158065
667.197	0.0159928
667.275	0.0158998
667.353	0.0158804
667.431	0.0158581
667.509	0.0160183
667.587	0.0159525
667.665	0.0159940
667.744	0.0158986
667.822	0.0159247
667.900	0.0159489
667.978	0.0159761
668.056	0.0159458
668.134	0.0159481
668.212	0.0158810
668.290	0.0158867
668.369	0.0156992
668.447	0.0159819
668.525	0.0158650
668.603	0.0157323
668.681	0.0159868
668.759	0.0159908
668.837	0.0158057
668.915	0.0158798
668.994	0.0159447
669.072	0.0158459
669.150	0.0158898
669.228	0.0159928
669.306	0.0159614
669.384	0.0160401
669.462	0.0157648
669.540	0.0157800
669.619	0.0158938
669.697	0.0159923
669.775	0.0159025
669.853	0.0158302
669.931	0.0158666
670.009	0.0157708
670.087	0.0159057
670.165	0.0158692
670.244	0.0157924
670.322	0.0158208
670.400	0.0158844
670.478	0.0157942
670.556	0.0158958
670.634	0.0158768
670.712	0.0157388
670.790	0.0158375
670.869	0.0158889
670.947	0.0157756
671.025	0.0158672
671.103	0.0160120
671.181	0.0158620
671.259	0.0158642
671.337	0.0157314
671.415	0.0158828
671.494	0.0158981
671.572	0.0158052
671.650	0.0158687
671.728	0.0158084
671.806	0.0158456
671.884	0.0158801
671.962	0.0156964
672.040	0.0158217
672.119	0.0157173
672.197	0.0157474
672.275	0.0157565
672.353	0.0157679
672.431	0.0158392
672.509	0.0158559
672.587	0.0158658
672.665	0.0157648
672.744	0.0158234
672.822	0.0157455
672.900	0.0157708
672.978	0.0158861
673.056	0.0156405
673.134	0.0157391
673.212	0.0157769
673.290	0.0156482
673.369	0.0157701
673.447	0.0156828
673.525	0.0157373
673.603	0.0157288
673.681	0.0158398
673.759	0.0157748
673.837	0.0157076
673.915	0.0158735
673.994	0.0157882
674.072	0.0155505
674.150	0.0157439
674.228	0.0158316
674.306	0.0156635
674.384	0.0157593
674.462	0.0156567
674.540	0.0157070
674.619	0.0157548
674.697	0.0157935
674.775	0.0157639
674.853	0.0156464
674.931	0.0157966
675.009	0.0158874
675.087	0.0157394
675.165	0.0156683
675.244	0.0157101
675.322	0.0156365
675.400	0.0157915
675.478	0.0156987
675.556	0.0157015
675.634	0.0157083
675.712	0.0157572
675.790	0.0156662
675.869	0.0157125
675.947	0.0156779
676.025	0.0157941
676.103	0.0157348
676.181	0.0157847
676.259	0.0157475
676.337	0.0156318
676.415	0.0158047
676.494	0.0158392
676.572	0.0158109
676.650	0.0158791
676.728	0.0156029
676.806	0.0158189
676.884	0.0157024
676.962	0.0157039
677.040	0.0156832
677.119	0.0157645
677.197	0.0157993
677.275	0.0157679
677.353	0.0158222
677.431	0.0158657
677.509	0.0157628
677.587	0.0157053
677.665	0.0158879
677.744	0.0157958
677.822	0.0157959
677.900	0.0158215
677.978	0.0158496
678.056	0.0157867
678.134	0.0158152
678.212	0.0158610
678.290	0.0157164
678.369	0.0157867
678.447	0.0158158
678.525	0.0157039
678.603	0.0156841
678.681	0.0159063
678.759	0.0157292
678.837	0.0158115
678.915	0.0157930
678.994	0.0157667
679.072	0.0157498
679.150	0.0157219
679.228	0.0158855
679.306	0.0157852
679.384	0.0158608
679.462	0.0159019
679.540	0.0157630
679.619	0.0157671
679.697	0.0158055
679.775	0.0157891
679.853	0.0157806
679.931	0.0157069
680.009	0.0156736
680.087	0.0156948
680.165	0.0158472
680.244	0.0158009
680.322	0.0157816
680.400	0.0156157
680.478	0.0157631
680.556	0.0158073
680.634	0.0158511
680.712	0.0156896
680.790	0.0158250
680.869	0.0159542
680.947	0.0158401
681.025	0.0157159
681.103	0.0158079
681.181	0.0157582
681.259	0.0156987
681.337	0.0158890
681.415	0.0158745
681.494	0.0157684
681.572	0.0159459
681.650	0.0157825
681.728	0.0158459
681.806	0.0158292
681.884	0.0159440
681.962	0.0160704
682.040	0.0159632
682.119	0.0159399
682.197	0.0159333
682.275	0.0159126
682.353	0.0157572
682.431	0.0156052
682.509	0.0156922
682.587	0.0154960
682.665	0.0153613
682.744	0.0153540
682.822	0.0153621
682.900	0.0153098
682.978	0.0150421
683.056	0.0150715
683.134	0.0152299
683.212	0.0153155
683.290	0.0153817
683.369	0.0154976
683.447	0.0154646
683.525	0.0157787
683.603	0.0160365
683.681	0.0159304
683.759	0.0160963
683.837	0.0164192
683.915	0.0165515
683.994	0.0165333
684.072	0.0165682
684.150	0.0168219
684.228	0.0167267
684.306	0.0165883
684.384	0.0166083
684.462	0.0163535
684.540	0.0162299
684.619	0.0162571
684.697	0.0159499
684.775	0.0157288
684.853	0.0155206
684.931	0.0154760
685.009	0.0152013
685.087	0.0150908
685.165	0.0150911
685.244	0.0149361
685.322	0.0149753
685.400	0.0149859
685.478	0.0151136
685.556	0.0151204
685.634	0.0152821
685.712	0.0155521
685.790	0.0154255
685.869	0.0157658
685.947	0.0159323
686.025	0.0160645
686.103	0.0163337
686.181	0.0162978
686.259	0.0163408
686.337	0.0166952
686.415	0.0166669
686.494	0.0167242
686.572	0.0168684
686.650	0.0168327
686.728	0.0169346
686.806	0.0168456
686.884	0.0168886
686.962	0.0170000
687.040	0.0169079
687.119	0.0167400
687.197	0.0166295
687.275	0.0165125
687.353	0.0165491
687.431	0.0162499
687.509	0.0159998
687.587	0.0157509
687.665	0.0155179
687.744	0.0154110
687.822	0.0150651
687.900	0.0147206
687.978	0.0143514
688.056	0.0143167
688.134	0.0140480
688.212	0.0139419
688.290	0.0137055
688.369	0.0137241
688.447	0.0137116
688.525	0.0138461
688.603	0.0140994
688.681	0.0143211
688.759	0.0145118
688.837	0.0147939
688.915	0.0150519
688.994	0.0154358
689.072	0.0159695
689.150	0.0162701
689.228	0.0166863
689.306	0.0170121
689.384	0.0172723
689.462	0.0175748
689.540	0.0178176
689.619	0.0179886
689.697	0.0180286
689.775	0.0181355
689.853	0.0181665
689.931	0.0180280
690.009	0.0178777
690.087	0.0178034
690.165	0.0174795
690.244	0.0172610
690.322	0.0169890
690.400	0.0167894
690.478	0.0163056
690.556	0.0160285
690.634	0.0156074
690.712	0.0152776
690.790	0.0149191
690.869	0.0146771
690.947	0.0145087
691.025	0.0144068
691.103	0.0141364
691.181	0.0140910
691.259	0.0140881
691.337	0.0141124
691.415	0.0140665
691.494	0.0141242
691.572	0.0142332
691.650	0.0143884
691.728	0.0143366
691.806	0.0145662
691.884	0.0147822
691.962	0.0148019
692.040	0.0150738
692.119	0.0152292
692.197	0.0151647
692.275	0.0154960
692.353	0.0156906
692.431	0.0158363
692.509	0.0159786
692.587	0.0160556
692.665	0.0163118
692.744	0.0164806
692.822	0.0165693
692.900	0.0165279
692.978	0.0166579
693.056	0.0168287
693.134	0.0166970
693.212	0.0169160
693.290	0.0169466
693.369	0.0169479
693.447	0.0167491
693.525	0.0165726
693.603	0.0166470
693.681	0.0164998
693.759	0.0162986
693.837	0.0161497
693.915	0.0161987
693.994	0.0160152
694.072	0.0158958
694.150	0.0158305
694.228	0.0157931
694.306	0.0157172
694.384	0.0157317
694.462	0.0156445
694.540	0.0154912
694.619	0.0157593
694.697	0.0157185
694.775	0.0157272
694.853	0.0156254
694.931	0.0156005
695.009	0.0156467
695.087	0.0155596
695.165	0.0156631
695.244	0.0156987
695.322	0.0158013
695.400	0.0156982
695.478	0.0156891
695.556	0.0156264
695.634	0.0157774
695.712	0.0157510
695.790	0.0159462
695.869	0.0158643
695.947	0.0158218
696.025	0.0158990
696.103	0.0161166
696.181	0.0160811
696.259	0.0161851
696.337	0.0163712
696.415	0.0163414
696.494	0.0163737
696.572	0.0164102
696.650	0.0165054
696.728	0.0166546
696.806	0.0165986
696.884	0.0165147
696.962	0.0164927
697.040	0.0165299
697.119	0.0164101
697.197	0.0161980
697.275	0.0162072
697.353	0.0160210
697.431	0.0159949
697.509	0.0159478
697.587	0.0158922
697.665	0.0157415
697.744	0.0157687
697.822	0.0157833
697.900	0.0157172
697.978	0.0156431
698.056	0.0158044
698.134	0.0158624
698.212	0.0159780
698.290	0.0159920
698.369	0.0159314
698.447	0.0159215
698.525	0.0159351
698.603	0.0159252
698.681	0.0160022
698.759	0.0158729
698.837	0.0155984
698.915	0.0154506
698.994	0.0153377
699.072	0.0154683
699.150	0.0152843
699.228	0.0152351
699.306	0.0150821
699.384	0.0149544
699.462	0.0150200
699.540	0.0149775
699.619	0.0150150
699.697	0.0148750
699.775	0.0152812
699.853	0.0151129
699.931	0.0151880
700.009	0.0152656
700.087	0.0153467
700.165	0.0155933
700.244	0.0156872
700.322	0.0158125
700.400	0.0157577
700.478	0.0159988
700.556	0.0162365
700.634	0.0160275
700.712	0.0161955
700.790	0.0162015
700.869	0.0163256
700.947	0.0161887
701.025	0.0161515
701.103	0.0161304
701.181	0.0162235
701.259	0.0161563
701.337	0.0161031
701.415	0.0159247
701.494	0.0159158
701.572	0.0158013
701.650	0.0158238
701.728	0.0155918
701.806	0.0156220
701.884	0.0154782
701.962	0.0151339
702.040	0.0153453
702.119	0.0154008
702.197	0.0152053
702.275	0.0151378
702.353	0.0152732
702.431	0.0152942
702.509	0.0154704
702.587	0.0156535
702.665	0.0156701
702.744	0.0157679
702.822	0.0158405
702.900	0.0160123
702.978	0.0160944
703.056	0.0162218
703.134	0.0160065
703.212	0.0161366
703.290	0.0162819
703.369	0.0162798
703.447	0.0162248
703.525	0.0161128
703.603	0.0162606
703.681	0.0162800
703.759	0.0161565
703.837	0.0161111
703.915	0.0161532
703.994	0.0161753
704.072	0.0160345
704.150	0.0161208
704.228	0.0160616
704.306	0.0159566
704.384	0.0159959
704.462	0.0160616
704.540	0.0161024
704.619	0.0161509
704.697	0.0160925
704.775	0.0161919
704.853	0.0162048
704.931	0.0161401
705.009	0.0162110
705.087	0.0161678
705.165	0.0159686
705.244	0.0159550
705.322	0.0158437
705.400	0.0157368
705.478	0.0156670
705.556	0.0156698
705.634	0.0154655
705.712	0.0155242
705.790	0.0155106
705.869	0.0153117
705.947	0.0154771
706.025	0.0155348
706.103	0.0154146
706.181	0.0155982
706.259	0.0153411
706.337	0.0155045
706.415	0.0155087
706.494	0.0155914
706.572	0.0155662
706.650	0.0155857
706.728	0.0156002
706.806	0.0156987
706.884	0.0156528
706.962	0.0157786
707.040	0.0156615
707.119	0.0158377
707.197	0.0158930
707.275	0.0158698
707.353	0.0158736
707.431	0.0158769
707.509	0.0159116
707.587	0.0157409
707.665	0.0158310
707.744	0.0158907
707.822	0.0159519
707.900	0.0158298
707.978	0.0159082
708.056	0.0160011
708.134	0.0159966
708.212	0.0161372
708.290	0.0160165
708.369	0.0159284
708.447	0.0158656
708.525	0.0159296
708.603	0.0158621
708.681	0.0157582
708.759	0.0157376
708.837	0.0156033
708.915	0.0155746
708.994	0.0155593
709.072	0.0154414
709.150	0.0154785
709.228	0.0156429
709.306	0.0155207
709.384	0.0155674
709.462	0.0156482
709.540	0.0156377
709.619	0.0156473
709.697	0.0156981
709.775	0.0159212
709.853	0.0159281
709.931	0.0157664
710.009	0.0159602
710.087	0.0158633
710.165	0.0158432
710.244	0.0160027
710.322	0.0159441
710.400	0.0159851
710.478	0.0159686
710.556	0.0159578
710.634	0.0161263
710.712	0.0159068
710.790	0.0159209
710.869	0.0159189
710.947	0.0158345
711.025	0.0158365
711.103	0.0156900
711.181	0.0156038
711.259	0.0157021
711.337	0.0157681
711.415	0.0156506
711.494	0.0154793
711.572	0.0153240
711.650	0.0154414
711.728	0.0154507
711.806	0.0153561
711.884	0.0154765
711.962	0.0155448
712.040	0.0155134
712.119	0.0154940
712.197	0.0154556
712.275	0.0155025
712.353	0.0156110
712.431	0.0156297
712.509	0.0156416
712.587	0.0158154
712.665	0.0157365
712.744	0.0158221
712.822	0.0158375
712.900	0.0159434
712.978	0.0159649
713.056	0.0159843
713.134	0.0158543
713.212	0.0159898
713.290	0.0160466
713.369	0.0158415
713.447	0.0159806
713.525	0.0157465
713.603	0.0158701
713.681	0.0160259
713.759	0.0160464
713.837	0.0159279
713.915	0.0159259
713.994	0.0160205
714.072	0.0160835
714.150	0.0161679
714.228	0.0161800
714.306	0.0162147
714.384	0.0162495
714.462	0.0163063
714.540	0.0161908
714.619	0.0161942
714.697	0.0163786
714.775	0.0162685
714.853	0.0160830
714.931	0.0160049
715.009	0.0160636
715.087	0.0160928
715.165	0.0158947
715.244	0.0159766
715.322	0.0160607
715.400	0.0159453
715.478	0.0158324
715.556	0.0157507
715.634	0.0157719
715.712	0.0157321
