05/17/2022	16:27:52	Ver.	4.1	UNKNOWN
Optical Delay	639.989416	Delta X		0.078125	Sweeps	1	Scan Rate	0/0
Coordinates	Axis 1	NaN	Axis 2	NaN	Axis 3	NaN	Axis 4	NaN	Axis 5	NaN	Axis 6	0.000000
TX Power	0.000000	RX Power	0.000000

639.989	0.0148185
640.068	0.0148091
640.146	0.0147941
640.224	0.0146495
640.302	0.0147535
640.380	0.0147685
640.458	0.0148461
640.536	0.0147418
640.614	0.0147257
640.693	0.0148885
640.771	0.0148999
640.849	0.0148461
640.927	0.0148009
641.005	0.0146793
641.083	0.0147662
641.161	0.0148293
641.239	0.0147916
641.318	0.0148811
641.396	0.0148189
641.474	0.0148268
641.552	0.0149847
641.630	0.0146502
641.708	0.0147682
641.786	0.0147852
641.864	0.0148053
641.943	0.0147314
642.021	0.0146911
642.099	0.0148695
642.177	0.0148158
642.255	0.0147330
642.333	0.0147598
642.411	0.0146806
642.489	0.0148186
642.568	0.0148659
642.646	0.0147598
642.724	0.0147563
642.802	0.0149184
642.880	0.0147620
642.958	0.0148432
643.036	0.0147653
643.114	0.0146722
643.193	0.0146500
643.271	0.0147245
643.349	0.0147688
643.427	0.0146757
643.505	0.0148109
643.583	0.0147379
643.661	0.0147846
643.739	0.0147042
643.818	0.0148312
643.896	0.0147131
643.974	0.0147814
644.052	0.0146947
644.130	0.0148303
644.208	0.0147752
644.286	0.0147941
644.364	0.0147868
644.443	0.0148053
644.521	0.0147377
644.599	0.0147523
644.677	0.0148941
644.755	0.0148454
644.833	0.0147498
644.911	0.0148555
644.989	0.0148026
645.068	0.0149802
645.146	0.0148927
645.224	0.0148111
645.302	0.0147601
645.380	0.0148448
645.458	0.0147775
645.536	0.0148638
645.614	0.0148009
645.693	0.0147608
645.771	0.0147795
645.849	0.0148064
645.927	0.0147669
646.005	0.0148038
646.083	0.0148382
646.161	0.0147639
646.239	0.0147703
646.318	0.0147800
646.396	0.0148880
646.474	0.0147536
646.552	0.0148042
646.630	0.0148731
646.708	0.0147664
646.786	0.0146711
646.864	0.0148196
646.943	0.0148008
647.021	0.0147958
647.099	0.0149168
647.177	0.0147134
647.255	0.0147012
647.333	0.0147636
647.411	0.0149033
647.489	0.0147834
647.568	0.0147678
647.646	0.0148420
647.724	0.0147853
647.802	0.0148381
647.880	0.0148273
647.958	0.0147798
648.036	0.0147912
648.114	0.0147633
648.193	0.0146974
648.271	0.0146964
648.349	0.0148217
648.427	0.0148193
648.505	0.0147289
648.583	0.0147053
648.661	0.0147098
648.739	0.0147201
648.818	0.0148536
648.896	0.0147961
648.974	0.0147659
649.052	0.0147588
649.130	0.0148239
649.208	0.0147850
649.286	0.0147076
649.364	0.0146648
649.443	0.0147811
649.521	0.0148185
649.599	0.0149007
649.677	0.0147466
649.755	0.0147599
649.833	0.0146156
649.911	0.0147598
649.989	0.0148584
650.068	0.0147272
650.146	0.0147866
650.224	0.0147810
650.302	0.0147885
650.380	0.0148235
650.458	0.0147947
650.536	0.0146518
650.614	0.0148599
650.693	0.0149200
650.771	0.0147098
650.849	0.0146638
650.927	0.0148285
651.005	0.0148450
651.083	0.0147198
651.161	0.0147213
651.239	0.0146985
651.318	0.0147337
651.396	0.0147825
651.474	0.0148423
651.552	0.0148579
651.630	0.0147881
651.708	0.0146825
651.786	0.0146780
651.864	0.0147752
651.943	0.0149068
652.021	0.0147645
652.099	0.0147618
652.177	0.0147797
652.255	0.0147794
652.333	0.0148719
652.411	0.0149033
652.489	0.0148406
652.568	0.0148393
652.646	0.0148899
652.724	0.0148438
652.802	0.0147626
652.880	0.0148256
652.958	0.0149091
653.036	0.0148569
653.114	0.0148582
653.193	0.0147282
653.271	0.0148421
653.349	0.0148557
653.427	0.0149046
653.505	0.0147784
653.583	0.0146449
653.661	0.0147038
653.739	0.0148625
653.818	0.0149103
653.896	0.0147462
653.974	0.0148189
654.052	0.0148173
654.130	0.0147767
654.208	0.0148949
654.286	0.0148142
654.364	0.0147386
654.443	0.0148458
654.521	0.0148726
654.599	0.0147710
654.677	0.0147106
654.755	0.0148462
654.833	0.0147160
654.911	0.0147967
654.989	0.0147550
655.068	0.0147839
655.146	0.0148162
655.224	0.0148811
655.302	0.0147832
655.380	0.0147662
655.458	0.0147739
655.536	0.0147723
655.614	0.0148401
655.693	0.0148568
655.771	0.0148547
655.849	0.0148459
655.927	0.0147341
656.005	0.0147040
656.083	0.0147941
656.161	0.0147861
656.239	0.0147216
656.318	0.0147143
656.396	0.0147892
656.474	0.0149099
656.552	0.0148115
656.630	0.0146497
656.708	0.0148568
656.786	0.0148224
656.864	0.0147774
656.943	0.0149005
657.021	0.0148608
657.099	0.0148641
657.177	0.0148463
657.255	0.0147784
657.333	0.0147720
657.411	0.0147276
657.489	0.0147900
657.568	0.0146126
657.646	0.0148319
657.724	0.0148991
657.802	0.0148587
657.880	0.0149239
657.958	0.0146754
658.036	0.0147205
658.114	0.0146531
658.193	0.0148985
658.271	0.0148116
658.349	0.0149206
658.427	0.0148133
658.505	0.0148309
658.583	0.0147893
658.661	0.0148333
658.739	0.0148292
658.818	0.0147664
658.896	0.0148849
658.974	0.0148346
659.052	0.0148314
659.130	0.0148463
659.208	0.0148117
659.286	0.0147372
659.364	0.0148024
659.443	0.0148946
659.521	0.0147553
659.599	0.0148121
659.677	0.0147461
659.755	0.0147940
659.833	0.0148897
659.911	0.0148249
659.989	0.0148434
660.068	0.0147952
660.146	0.0148535
660.224	0.0147990
660.302	0.0146900
660.380	0.0148249
660.458	0.0147827
660.536	0.0147401
660.614	0.0147224
660.693	0.0147326
660.771	0.0147773
660.849	0.0148441
660.927	0.0148142
661.005	0.0148775
661.083	0.0148849
661.161	0.0149702
661.239	0.0148318
661.318	0.0146580
661.396	0.0147322
661.474	0.0147794
661.552	0.0147713
661.630	0.0146660
661.708	0.0147984
661.786	0.0148727
661.864	0.0148873
661.943	0.0147226
662.021	0.0146948
662.099	0.0148244
662.177	0.0148031
662.255	0.0148529
662.333	0.0147476
662.411	0.0148385
662.489	0.0148669
662.568	0.0148023
662.646	0.0146548
662.724	0.0147860
662.802	0.0146970
662.880	0.0147647
662.958	0.0147462
663.036	0.0148659
663.114	0.0147066
663.193	0.0147462
663.271	0.0148734
663.349	0.0148187
663.427	0.0147713
663.505	0.0147107
663.583	0.0147563
663.661	0.0147339
663.739	0.0146272
663.818	0.0146908
663.896	0.0148073
663.974	0.0148415
664.052	0.0148141
664.130	0.0148203
664.208	0.0147118
664.286	0.0149136
664.364	0.0148329
664.443	0.0147329
664.521	0.0148000
664.599	0.0148550
664.677	0.0146790
664.755	0.0147959
664.833	0.0148705
664.911	0.0147781
664.989	0.0146825
665.068	0.0148623
665.146	0.0146886
665.224	0.0149355
665.302	0.0147135
665.380	0.0147392
665.458	0.0148045
665.536	0.0146994
665.614	0.0147421
665.693	0.0147086
665.771	0.0148048
665.849	0.0148386
665.927	0.0146652
666.005	0.0147836
666.083	0.0146598
666.161	0.0147630
666.239	0.0147394
666.318	0.0147743
666.396	0.0148553
666.474	0.0147472
666.552	0.0147418
666.630	0.0147430
666.708	0.0148651
666.786	0.0147868
666.864	0.0147688
666.943	0.0146766
667.021	0.0147582
667.099	0.0148757
667.177	0.0147570
667.255	0.0147563
667.333	0.0148908
667.411	0.0148005
667.489	0.0147971
667.568	0.0147539
667.646	0.0147900
667.724	0.0147287
667.802	0.0148238
667.880	0.0147801
667.958	0.0147608
668.036	0.0147327
668.114	0.0149548
668.193	0.0148466
668.271	0.0147608
668.349	0.0147192
668.427	0.0147493
668.505	0.0148490
668.583	0.0148244
668.661	0.0147754
668.739	0.0148141
668.818	0.0148380
668.896	0.0147068
668.974	0.0147955
669.052	0.0147777
669.130	0.0147544
669.208	0.0148201
669.286	0.0149417
669.364	0.0146742
669.443	0.0147465
669.521	0.0149215
669.599	0.0148592
669.677	0.0147699
669.755	0.0148122
669.833	0.0148627
669.911	0.0148270
669.989	0.0148077
670.068	0.0148518
670.146	0.0148514
670.224	0.0148129
670.302	0.0147808
670.380	0.0147504
670.458	0.0146658
670.536	0.0148434
670.614	0.0149026
670.693	0.0147316
670.771	0.0148579
670.849	0.0148404
670.927	0.0147929
671.005	0.0147509
671.083	0.0147758
671.161	0.0148579
671.239	0.0147939
671.318	0.0147328
671.396	0.0148512
671.474	0.0148619
671.552	0.0148501
671.630	0.0147911
671.708	0.0146931
671.786	0.0148806
671.864	0.0147620
671.943	0.0148307
672.021	0.0149359
672.099	0.0147562
672.177	0.0147862
672.255	0.0147842
672.333	0.0148141
672.411	0.0148098
672.489	0.0147766
672.568	0.0147449
672.646	0.0148164
672.724	0.0147114
672.802	0.0147897
672.880	0.0148183
672.958	0.0147599
673.036	0.0147902
673.114	0.0147445
673.193	0.0147066
673.271	0.0146996
673.349	0.0147449
673.427	0.0146602
673.505	0.0148134
673.583	0.0147984
673.661	0.0145957
673.739	0.0147175
673.818	0.0146523
673.896	0.0145890
673.974	0.0147523
674.052	0.0147842
674.130	0.0146878
674.208	0.0147086
674.286	0.0146376
674.364	0.0146158
674.443	0.0147180
674.521	0.0146661
674.599	0.0147315
674.677	0.0146764
674.755	0.0146680
674.833	0.0146721
674.911	0.0147042
674.989	0.0147502
675.068	0.0145958
675.146	0.0145883
675.224	0.0146157
675.302	0.0148331
675.380	0.0148184
675.458	0.0146630
675.536	0.0147063
675.614	0.0147002
675.693	0.0146710
675.771	0.0147517
675.849	0.0147206
675.927	0.0147433
676.005	0.0146949
676.083	0.0146144
676.161	0.0146659
676.239	0.0146872
676.318	0.0146644
676.396	0.0147066
676.474	0.0146970
676.552	0.0148023
676.630	0.0147944
676.708	0.0147176
676.786	0.0147044
676.864	0.0145675
676.943	0.0147164
677.021	0.0146815
677.099	0.0147353
677.177	0.0146880
677.255	0.0148137
677.333	0.0147530
677.411	0.0147548
677.489	0.0147933
677.568	0.0147247
677.646	0.0146877
677.724	0.0145945
677.802	0.0147253
677.880	0.0147914
677.958	0.0146815
678.036	0.0147166
678.114	0.0147450
678.193	0.0147056
678.271	0.0147997
678.349	0.0147067
678.427	0.0146816
678.505	0.0146535
678.583	0.0147284
678.661	0.0148293
678.739	0.0148478
678.818	0.0147748
678.896	0.0148032
678.974	0.0148361
679.052	0.0147912
679.130	0.0148293
679.208	0.0147255
679.286	0.0150055
679.364	0.0148500
679.443	0.0148564
679.521	0.0148103
679.599	0.0147073
679.677	0.0147973
679.755	0.0147949
679.833	0.0148751
679.911	0.0149611
679.989	0.0149037
680.068	0.0149152
680.146	0.0149159
680.224	0.0148252
680.302	0.0148051
680.380	0.0148530
680.458	0.0146719
680.536	0.0148624
680.614	0.0148471
680.693	0.0148571
680.771	0.0148637
680.849	0.0148941
680.927	0.0150076
681.005	0.0147561
681.083	0.0147999
681.161	0.0148593
681.239	0.0147711
681.318	0.0147059
681.396	0.0148041
681.474	0.0147743
681.552	0.0149032
681.630	0.0147749
681.708	0.0148302
681.786	0.0147462
681.864	0.0148797
681.943	0.0148853
682.021	0.0148097
682.099	0.0147267
682.177	0.0148822
682.255	0.0148673
682.333	0.0147894
682.411	0.0147449
682.489	0.0149595
682.568	0.0149256
682.646	0.0148135
682.724	0.0147960
682.802	0.0147620
682.880	0.0149393
682.958	0.0149342
683.036	0.0147908
683.114	0.0148602
683.193	0.0146708
683.271	0.0147942
683.349	0.0148964
683.427	0.0148052
683.505	0.0148290
683.583	0.0147812
683.661	0.0147301
683.739	0.0148092
683.818	0.0147096
683.896	0.0147282
683.974	0.0149326
684.052	0.0148195
684.130	0.0149336
684.208	0.0148705
684.286	0.0146513
684.364	0.0147846
684.443	0.0147723
684.521	0.0147657
684.599	0.0147647
684.677	0.0147327
684.755	0.0148383
684.833	0.0147541
684.911	0.0148352
684.989	0.0148553
685.068	0.0146921
685.146	0.0148990
685.224	0.0149002
685.302	0.0148175
685.380	0.0147012
685.458	0.0148170
685.536	0.0147622
685.614	0.0147526
685.693	0.0148168
685.771	0.0148339
685.849	0.0147083
685.927	0.0147121
686.005	0.0148113
686.083	0.0148325
686.161	0.0148788
686.239	0.0148693
686.318	0.0147955
686.396	0.0147935
686.474	0.0147544
686.552	0.0147554
686.630	0.0148764
686.708	0.0148209
686.786	0.0147576
686.864	0.0147712
686.943	0.0148972
687.021	0.0147645
687.099	0.0148056
687.177	0.0148720
687.255	0.0147231
687.333	0.0148062
687.411	0.0148247
687.489	0.0148458
687.568	0.0147536
687.646	0.0147385
687.724	0.0147285
687.802	0.0147721
687.880	0.0148092
687.958	0.0147365
688.036	0.0147751
688.114	0.0147044
688.193	0.0148848
688.271	0.0148299
688.349	0.0147473
688.427	0.0147424
688.505	0.0146812
688.583	0.0146590
688.661	0.0148528
688.739	0.0148748
688.818	0.0146593
688.896	0.0146809
688.974	0.0148270
689.052	0.0146993
689.130	0.0149110
689.208	0.0147682
689.286	0.0147472
689.364	0.0147699
689.443	0.0147384
689.521	0.0148302
689.599	0.0147629
689.677	0.0148081
689.755	0.0149152
689.833	0.0148012
689.911	0.0147003
689.989	0.0147365
690.068	0.0148598
690.146	0.0147218
690.224	0.0147453
690.302	0.0147807
690.380	0.0148221
690.458	0.0148314
690.536	0.0148998
690.614	0.0147138
690.693	0.0148372
690.771	0.0147610
690.849	0.0147372
690.927	0.0147372
691.005	0.0145055
691.083	0.0148017
691.161	0.0148110
691.239	0.0148016
691.318	0.0148181
691.396	0.0149095
691.474	0.0147184
691.552	0.0148004
691.630	0.0150329
691.708	0.0148351
691.786	0.0149744
691.864	0.0149497
691.943	0.0149402
692.021	0.0149278
692.099	0.0148360
692.177	0.0148428
692.255	0.0148017
692.333	0.0147376
692.411	0.0147964
692.489	0.0148071
692.568	0.0146854
692.646	0.0147086
692.724	0.0146890
692.802	0.0147904
692.880	0.0147016
692.958	0.0146492
693.036	0.0147162
693.114	0.0146555
693.193	0.0147830
693.271	0.0148128
693.349	0.0147085
693.427	0.0148379
693.505	0.0148602
693.583	0.0149484
693.661	0.0147384
693.739	0.0148573
693.818	0.0148714
693.896	0.0148743
693.974	0.0148107
694.052	0.0148186
694.130	0.0148951
694.208	0.0146918
694.286	0.0147961
694.364	0.0150043
694.443	0.0148288
694.521	0.0147793
694.599	0.0147656
694.677	0.0147886
694.755	0.0147921
694.833	0.0147474
694.911	0.0148297
694.989	0.0147732
695.068	0.0148015
695.146	0.0146859
695.224	0.0147714
695.302	0.0146845
695.380	0.0147023
695.458	0.0147722
695.536	0.0148558
695.614	0.0148440
695.693	0.0146907
695.771	0.0146396
695.849	0.0148753
695.927	0.0148521
696.005	0.0147404
696.083	0.0147855
696.161	0.0148141
696.239	0.0148787
696.318	0.0148597
696.396	0.0148693
696.474	0.0147651
696.552	0.0148921
696.630	0.0148846
696.708	0.0148093
696.786	0.0148078
696.864	0.0147913
696.943	0.0148011
697.021	0.0147354
697.099	0.0148113
697.177	0.0148158
697.255	0.0149760
697.333	0.0148009
697.411	0.0148461
697.489	0.0147586
697.568	0.0147897
697.646	0.0148565
697.724	0.0149020
697.802	0.0149788
697.880	0.0149466
697.958	0.0148581
698.036	0.0147742
698.114	0.0147490
698.193	0.0147036
698.271	0.0148208
698.349	0.0147471
698.427	0.0148263
698.505	0.0148334
698.583	0.0148735
698.661	0.0148192
698.739	0.0146611
698.818	0.0146962
698.896	0.0147820
698.974	0.0148978
699.052	0.0148312
699.130	0.0147195
699.208	0.0147396
699.286	0.0148901
699.364	0.0147070
699.443	0.0148127
699.521	0.0148079
699.599	0.0146548
699.677	0.0146832
699.755	0.0147092
699.833	0.0146847
699.911	0.0146139
699.989	0.0146206
700.068	0.0147034
700.146	0.0147218
700.224	0.0145739
700.302	0.0146249
700.380	0.0145748
700.458	0.0148683
700.536	0.0147762
700.614	0.0148338
700.693	0.0148926
700.771	0.0149229
700.849	0.0148142
700.927	0.0147248
701.005	0.0148550
701.083	0.0147443
701.161	0.0147987
701.239	0.0149650
701.318	0.0148914
701.396	0.0150034
701.474	0.0148878
701.552	0.0148572
701.630	0.0147563
701.708	0.0148947
701.786	0.0146861
701.864	0.0147642
701.943	0.0146969
702.021	0.0146265
702.099	0.0147585
702.177	0.0147403
702.255	0.0147309
702.333	0.0147667
702.411	0.0145914
702.489	0.0146922
702.568	0.0146445
702.646	0.0146143
702.724	0.0148772
702.802	0.0147570
702.880	0.0147916
702.958	0.0146992
703.036	0.0146747
703.114	0.0147899
703.193	0.0145263
703.271	0.0145791
703.349	0.0147532
703.427	0.0146832
703.505	0.0146232
703.583	0.0145761
703.661	0.0146267
703.739	0.0147144
703.818	0.0146631
703.896	0.0145909
703.974	0.0146632
704.052	0.0147021
704.130	0.0147417
704.208	0.0147545
704.286	0.0147403
704.364	0.0146381
704.443	0.0148222
704.521	0.0149099
704.599	0.0148885
704.677	0.0149712
704.755	0.0148569
704.833	0.0148533
704.911	0.0149148
704.989	0.0148771
705.068	0.0148935
705.146	0.0149503
705.224	0.0148750
705.302	0.0147170
705.380	0.0148651
705.458	0.0149317
705.536	0.0147762
705.614	0.0144788
705.693	0.0147853
705.771	0.0147755
705.849	0.0146986
705.927	0.0147110
706.005	0.0147170
706.083	0.0148264
706.161	0.0148027
706.239	0.0146561
706.318	0.0147299
706.396	0.0147099
706.474	0.0148331
706.552	0.0148798
706.630	0.0147762
706.708	0.0148382
706.786	0.0150304
706.864	0.0148969
706.943	0.0150451
707.021	0.0148045
707.099	0.0148567
707.177	0.0148347
707.255	0.0147933
707.333	0.0147852
707.411	0.0148371
707.489	0.0147442
707.568	0.0146019
707.646	0.0147118
707.724	0.0147457
707.802	0.0147260
707.880	0.0146300
707.958	0.0146530
708.036	0.0146907
708.114	0.0146812
708.193	0.0148984
708.271	0.0149188
708.349	0.0148260
708.427	0.0148653
708.505	0.0148515
708.583	0.0149408
708.661	0.0149334
708.739	0.0150295
708.818	0.0150047
708.896	0.0149126
708.974	0.0149821
709.052	0.0149845
709.130	0.0149200
709.208	0.0148973
709.286	0.0149167
709.364	0.0148865
709.443	0.0148841
709.521	0.0149161
709.599	0.0147864
709.677	0.0148602
709.755	0.0148748
709.833	0.0147966
709.911	0.0148920
709.989	0.0147088
710.068	0.0147968
710.146	0.0148432
710.224	0.0147473
710.302	0.0147908
710.380	0.0149088
710.458	0.0149310
710.536	0.0149668
710.614	0.0149804
710.693	0.0149158
710.771	0.0150184
710.849	0.0150932
710.927	0.0149134
711.005	0.0149532
711.083	0.0149641
711.161	0.0148053
711.239	0.0146665
711.318	0.0147466
711.396	0.0145869
711.474	0.0145455
711.552	0.0145322
711.630	0.0143274
711.708	0.0143137
711.786	0.0144263
711.864	0.0143099
711.943	0.0144140
712.021	0.0146080
712.099	0.0145251
712.177	0.0147192
712.255	0.0148382
712.333	0.0148491
712.411	0.0150285
712.489	0.0150579
712.568	0.0152377
712.646	0.0154292
712.724	0.0154536
712.802	0.0154504
712.880	0.0154744
712.958	0.0154545
713.036	0.0153647
713.114	0.0152705
713.193	0.0151852
713.271	0.0149326
713.349	0.0147754
713.427	0.0145489
713.505	0.0143538
713.583	0.0143027
713.661	0.0140619
713.739	0.0139281
713.818	0.0139737
713.896	0.0138834
713.974	0.0139422
714.052	0.0141158
714.130	0.0141842
714.208	0.0142516
714.286	0.0143245
714.364	0.0147394
714.443	0.0149358
714.521	0.0149639
714.599	0.0153597
714.677	0.0155806
714.755	0.0156525
714.833	0.0158255
714.911	0.0159779
714.989	0.0158736
715.068	0.0159416
715.146	0.0158066
715.224	0.0155630
715.302	0.0154641
715.380	0.0152435
715.458	0.0149823
715.536	0.0146908
715.614	0.0144399
715.693	0.0142817
715.771	0.0140582
715.849	0.0139926
715.927	0.0138464
716.005	0.0138483
716.083	0.0139680
716.161	0.0140668
716.239	0.0142418
716.318	0.0143656
716.396	0.0146243
716.474	0.0148478
716.552	0.0148320
716.630	0.0150282
716.708	0.0152157
716.786	0.0154548
716.864	0.0155131
716.943	0.0155049
717.021	0.0154559
717.099	0.0156353
717.177	0.0153418
717.255	0.0151604
717.333	0.0150909
717.411	0.0149270
717.489	0.0147804
717.568	0.0146375
717.646	0.0144979
717.724	0.0146033
717.802	0.0145982
717.880	0.0144061
717.958	0.0144927
718.036	0.0146004
718.114	0.0147694
718.193	0.0147588
718.271	0.0147880
718.349	0.0147494
718.427	0.0148181
718.505	0.0147244
718.583	0.0148312
718.661	0.0145448
718.739	0.0143933
718.818	0.0144521
718.896	0.0145173
718.974	0.0145464
719.052	0.0145187
719.130	0.0143089
719.208	0.0143690
719.286	0.0144305
719.364	0.0146434
719.443	0.0147580
719.521	0.0147948
719.599	0.0148595
719.677	0.0150215
719.755	0.0150975
719.833	0.0151602
719.911	0.0152896
719.989	0.0154120
720.068	0.0154720
720.146	0.0152102
720.224	0.0150950
720.302	0.0150920
720.380	0.0150711
720.458	0.0148502
720.536	0.0147574
720.614	0.0146929
720.693	0.0145717
720.771	0.0145663
720.849	0.0144781
720.927	0.0144030
721.005	0.0145164
721.083	0.0147391
721.161	0.0145484
721.239	0.0147369
721.318	0.0148225
721.396	0.0147996
721.474	0.0147757
721.552	0.0147991
721.630	0.0148726
721.708	0.0147832
721.786	0.0147114
721.864	0.0148275
721.943	0.0145872
722.021	0.0145939
722.099	0.0148138
722.177	0.0147796
722.255	0.0148758
722.333	0.0149678
722.411	0.0149387
722.489	0.0149941
722.568	0.0150836
722.646	0.0151225
722.724	0.0151991
722.802	0.0152290
722.880	0.0151601
722.958	0.0151234
723.036	0.0149866
723.114	0.0151050
723.193	0.0150208
723.271	0.0148462
723.349	0.0147594
723.427	0.0147234
723.505	0.0146302
723.583	0.0145522
723.661	0.0143983
723.739	0.0144310
723.818	0.0143922
723.896	0.0144482
723.974	0.0143752
724.052	0.0143368
724.130	0.0142828
724.208	0.0143992
724.286	0.0145329
724.364	0.0145850
724.443	0.0146738
724.521	0.0148524
724.599	0.0150483
724.677	0.0150671
724.755	0.0149927
724.833	0.0151122
724.911	0.0151495
724.989	0.0152353
725.068	0.0151101
725.146	0.0150110
725.224	0.0151502
725.302	0.0149538
725.380	0.0149350
725.458	0.0148891
725.536	0.0147721
725.614	0.0148660
725.693	0.0147224
