05/17/2022	16:41:28	Ver.	4.1	UNKNOWN
Optical Delay	639.982744	Delta X		0.078125	Sweeps	1	Scan Rate	0/0
Coordinates	Axis 1	NaN	Axis 2	NaN	Axis 3	NaN	Axis 4	NaN	Axis 5	NaN	Axis 6	0.000000
TX Power	0.000000	RX Power	0.000000

639.983	0.0159774
640.061	0.0160398
640.139	0.0161282
640.217	0.0160959
640.295	0.0160528
640.373	0.0159938
640.451	0.0159943
640.530	0.0159946
640.608	0.0159939
640.686	0.0158607
640.764	0.0159581
640.842	0.0160262
640.920	0.0158859
640.998	0.0159488
641.076	0.0160408
641.155	0.0161217
641.233	0.0162442
641.311	0.0159971
641.389	0.0160046
641.467	0.0160328
641.545	0.0159199
641.623	0.0160459
641.701	0.0159302
641.780	0.0160343
641.858	0.0159995
641.936	0.0161239
642.014	0.0160973
642.092	0.0160736
642.170	0.0160645
642.248	0.0159392
642.326	0.0160099
642.405	0.0160296
642.483	0.0160094
642.561	0.0158897
642.639	0.0159964
642.717	0.0160332
642.795	0.0160718
642.873	0.0158753
642.951	0.0158958
643.030	0.0160276
643.108	0.0160052
643.186	0.0160108
643.264	0.0160435
643.342	0.0160884
643.420	0.0160957
643.498	0.0160134
643.576	0.0158337
643.655	0.0159335
643.733	0.0160226
643.811	0.0160284
643.889	0.0160339
643.967	0.0159446
644.045	0.0160234
644.123	0.0159971
644.201	0.0161189
644.280	0.0159448
644.358	0.0160163
644.436	0.0159315
644.514	0.0160231
644.592	0.0160188
644.670	0.0160120
644.748	0.0160040
644.826	0.0160839
644.905	0.0159924
644.983	0.0159976
645.061	0.0159988
645.139	0.0159893
645.217	0.0159772
645.295	0.0160072
645.373	0.0159841
645.451	0.0160830
645.530	0.0159657
645.608	0.0160724
645.686	0.0160034
645.764	0.0160178
645.842	0.0159864
645.920	0.0161824
645.998	0.0160381
646.076	0.0159715
646.155	0.0159893
646.233	0.0159186
646.311	0.0160002
646.389	0.0160329
646.467	0.0160197
646.545	0.0159416
646.623	0.0160938
646.701	0.0159196
646.780	0.0159918
646.858	0.0161620
646.936	0.0160228
647.014	0.0160735
647.092	0.0160976
647.170	0.0159775
647.248	0.0159882
647.326	0.0161114
647.405	0.0159620
647.483	0.0159023
647.561	0.0159113
647.639	0.0159303
647.717	0.0160561
647.795	0.0160555
647.873	0.0160461
647.951	0.0160559
648.030	0.0159537
648.108	0.0159838
648.186	0.0160787
648.264	0.0159515
648.342	0.0159245
648.420	0.0159274
648.498	0.0160371
648.576	0.0160445
648.655	0.0159779
648.733	0.0158825
648.811	0.0160616
648.889	0.0159361
648.967	0.0158289
649.045	0.0159814
649.123	0.0159105
649.201	0.0158874
649.280	0.0161558
649.358	0.0159177
649.436	0.0160246
649.514	0.0158983
649.592	0.0159534
649.670	0.0161093
649.748	0.0160078
649.826	0.0160261
649.905	0.0160825
649.983	0.0159851
650.061	0.0160210
650.139	0.0159430
650.217	0.0159950
650.295	0.0160757
650.373	0.0160123
650.451	0.0158945
650.530	0.0158662
650.608	0.0159610
650.686	0.0159429
650.764	0.0160135
650.842	0.0159214
650.920	0.0160165
650.998	0.0160715
651.076	0.0159891
651.155	0.0159416
651.233	0.0160050
651.311	0.0160709
651.389	0.0160092
651.467	0.0159483
651.545	0.0160091
651.623	0.0159931
651.701	0.0160397
651.780	0.0159738
651.858	0.0158334
651.936	0.0159367
652.014	0.0160076
652.092	0.0161024
652.170	0.0159616
652.248	0.0158897
652.326	0.0158875
652.405	0.0159037
652.483	0.0158612
652.561	0.0160474
652.639	0.0159978
652.717	0.0158848
652.795	0.0157621
652.873	0.0158990
652.951	0.0160387
653.030	0.0160439
653.108	0.0159792
653.186	0.0158938
653.264	0.0160429
653.342	0.0159700
653.420	0.0160127
653.498	0.0159186
653.576	0.0158904
653.655	0.0160436
653.733	0.0160174
653.811	0.0159330
653.889	0.0159351
653.967	0.0158379
654.045	0.0160592
654.123	0.0159695
654.201	0.0159143
654.280	0.0160357
654.358	0.0159841
654.436	0.0159611
654.514	0.0159723
654.592	0.0159062
654.670	0.0160420
654.748	0.0159721
654.826	0.0159413
654.905	0.0159928
654.983	0.0160478
655.061	0.0159280
655.139	0.0160744
655.217	0.0161019
655.295	0.0160011
655.373	0.0160056
655.451	0.0160313
655.530	0.0160243
655.608	0.0161275
655.686	0.0160378
655.764	0.0159944
655.842	0.0160359
655.920	0.0158351
655.998	0.0158717
656.076	0.0158806
656.155	0.0159607
656.233	0.0160210
656.311	0.0159263
656.389	0.0160670
656.467	0.0160757
656.545	0.0159573
656.623	0.0159893
656.701	0.0159612
656.780	0.0158793
656.858	0.0159329
656.936	0.0161422
657.014	0.0159927
657.092	0.0160535
657.170	0.0161080
657.248	0.0161248
657.326	0.0160636
657.405	0.0159572
657.483	0.0161459
657.561	0.0160204
657.639	0.0159432
657.717	0.0160210
657.795	0.0160760
657.873	0.0160433
657.951	0.0159155
658.030	0.0160214
658.108	0.0161733
658.186	0.0160443
658.264	0.0159205
658.342	0.0159787
658.420	0.0159115
658.498	0.0160341
658.576	0.0160066
658.655	0.0158299
658.733	0.0159381
658.811	0.0161314
658.889	0.0160631
658.967	0.0160405
659.045	0.0160340
659.123	0.0160460
659.201	0.0159683
659.280	0.0160808
659.358	0.0159898
659.436	0.0158633
659.514	0.0160239
659.592	0.0161256
659.670	0.0160329
659.748	0.0160504
659.826	0.0159204
659.905	0.0159102
659.983	0.0160832
660.061	0.0160290
660.139	0.0159785
660.217	0.0159220
660.295	0.0160156
660.373	0.0159889
660.451	0.0159627
660.530	0.0160710
660.608	0.0160318
660.686	0.0161735
660.764	0.0160062
660.842	0.0160735
660.920	0.0160221
660.998	0.0159322
661.076	0.0160080
661.155	0.0159962
661.233	0.0160727
661.311	0.0159589
661.389	0.0159995
661.467	0.0160505
661.545	0.0159689
661.623	0.0159842
661.701	0.0160287
661.780	0.0160367
661.858	0.0159872
661.936	0.0158571
662.014	0.0158131
662.092	0.0161526
662.170	0.0161861
662.248	0.0160058
662.326	0.0160721
662.405	0.0161075
662.483	0.0160735
662.561	0.0159779
662.639	0.0159045
662.717	0.0160105
662.795	0.0158555
662.873	0.0160575
662.951	0.0160212
663.030	0.0158643
663.108	0.0160150
663.186	0.0160902
663.264	0.0160480
663.342	0.0160749
663.420	0.0158217
663.498	0.0159868
663.576	0.0159761
663.655	0.0159669
663.733	0.0159200
663.811	0.0158910
663.889	0.0159802
663.967	0.0159592
664.045	0.0160873
664.123	0.0160075
664.201	0.0160467
664.280	0.0161891
664.358	0.0159672
664.436	0.0158189
664.514	0.0160493
664.592	0.0160996
664.670	0.0160682
664.748	0.0160032
664.826	0.0160921
664.905	0.0160677
664.983	0.0158849
665.061	0.0159724
665.139	0.0160568
665.217	0.0160180
665.295	0.0159374
665.373	0.0159108
665.451	0.0160036
665.530	0.0161176
665.608	0.0160486
665.686	0.0159927
665.764	0.0160330
665.842	0.0160112
665.920	0.0161047
665.998	0.0159618
666.076	0.0159998
666.155	0.0160535
666.233	0.0159602
666.311	0.0159353
666.389	0.0160977
666.467	0.0159853
666.545	0.0159131
666.623	0.0159068
666.701	0.0159962
666.780	0.0160001
666.858	0.0159527
666.936	0.0160558
667.014	0.0160156
667.092	0.0159901
667.170	0.0158871
667.248	0.0159541
667.326	0.0159911
667.405	0.0160672
667.483	0.0159105
667.561	0.0159123
667.639	0.0159487
667.717	0.0160459
667.795	0.0161014
667.873	0.0159035
667.951	0.0159615
668.030	0.0160861
668.108	0.0160008
668.186	0.0160940
668.264	0.0161887
668.342	0.0159698
668.420	0.0159740
668.498	0.0160790
668.576	0.0161365
668.655	0.0159898
668.733	0.0161790
668.811	0.0160764
668.889	0.0159882
668.967	0.0159962
669.045	0.0160601
669.123	0.0161373
669.201	0.0160357
669.280	0.0161144
669.358	0.0160651
669.436	0.0160133
669.514	0.0160471
669.592	0.0160889
669.670	0.0159609
669.748	0.0160217
669.826	0.0159031
669.905	0.0158928
669.983	0.0160291
670.061	0.0158797
670.139	0.0160123
670.217	0.0158909
670.295	0.0160484
670.373	0.0160396
670.451	0.0159444
670.530	0.0160167
670.608	0.0160773
670.686	0.0159901
670.764	0.0160646
670.842	0.0158309
670.920	0.0160703
670.998	0.0160257
671.076	0.0158968
671.155	0.0159610
671.233	0.0159834
671.311	0.0160620
671.389	0.0159898
671.467	0.0160494
671.545	0.0159817
671.623	0.0159941
671.701	0.0158776
671.780	0.0160273
671.858	0.0160699
671.936	0.0160422
672.014	0.0159625
672.092	0.0159724
672.170	0.0160142
672.248	0.0158931
672.326	0.0160657
672.405	0.0158347
672.483	0.0160785
672.561	0.0160000
672.639	0.0159924
672.717	0.0161124
672.795	0.0159632
672.873	0.0158907
672.951	0.0159634
673.030	0.0160678
673.108	0.0160072
673.186	0.0159367
673.264	0.0159212
673.342	0.0158412
673.420	0.0159209
673.498	0.0159116
673.576	0.0160568
673.655	0.0159354
673.733	0.0158837
673.811	0.0160242
673.889	0.0159814
673.967	0.0160329
674.045	0.0160433
674.123	0.0159570
674.201	0.0159750
674.280	0.0160039
674.358	0.0159221
674.436	0.0158747
674.514	0.0157821
674.592	0.0159776
674.670	0.0158415
674.748	0.0159595
674.826	0.0159992
674.905	0.0157856
674.983	0.0158539
675.061	0.0160200
675.139	0.0159710
675.217	0.0160422
675.295	0.0160883
675.373	0.0159734
675.451	0.0161044
675.530	0.0159851
675.608	0.0158089
675.686	0.0157948
675.764	0.0159652
675.842	0.0159976
675.920	0.0160774
675.998	0.0160247
676.076	0.0159469
676.155	0.0161574
676.233	0.0160547
676.311	0.0160152
676.389	0.0159204
676.467	0.0159939
676.545	0.0159294
676.623	0.0159232
676.701	0.0157681
676.780	0.0158595
676.858	0.0158833
676.936	0.0158286
677.014	0.0159129
677.092	0.0159064
677.170	0.0159560
677.248	0.0159683
677.326	0.0160815
677.405	0.0158501
677.483	0.0159917
677.561	0.0159320
677.639	0.0160592
677.717	0.0161257
677.795	0.0159740
677.873	0.0160039
677.951	0.0160921
678.030	0.0161048
678.108	0.0161291
678.186	0.0162334
678.264	0.0160984
678.342	0.0160637
678.420	0.0161436
678.498	0.0159700
678.576	0.0161240
678.655	0.0159585
678.733	0.0156845
678.811	0.0156939
678.889	0.0157510
678.967	0.0157253
679.045	0.0158784
679.123	0.0158203
679.201	0.0159544
679.280	0.0158319
679.358	0.0158035
679.436	0.0158250
679.514	0.0159288
679.592	0.0158568
679.670	0.0159959
679.748	0.0161160
679.826	0.0160557
679.905	0.0160363
679.983	0.0160654
680.061	0.0162997
680.139	0.0161620
680.217	0.0162849
680.295	0.0163112
680.373	0.0162688
680.451	0.0161263
680.530	0.0161460
680.608	0.0161240
680.686	0.0161605
680.764	0.0161433
680.842	0.0159173
680.920	0.0159489
680.998	0.0158326
681.076	0.0158186
681.155	0.0157023
681.233	0.0156753
681.311	0.0157901
681.389	0.0156853
681.467	0.0157123
681.545	0.0154779
681.623	0.0154838
681.701	0.0155669
681.780	0.0156847
681.858	0.0157481
681.936	0.0158588
682.014	0.0157388
682.092	0.0159452
682.170	0.0159395
682.248	0.0160324
682.326	0.0161597
682.405	0.0162212
682.483	0.0162879
682.561	0.0164108
682.639	0.0164439
682.717	0.0164110
682.795	0.0165661
682.873	0.0164389
682.951	0.0164651
683.030	0.0163861
683.108	0.0164311
683.186	0.0162133
683.264	0.0162410
683.342	0.0162523
683.420	0.0159804
683.498	0.0159328
683.576	0.0156066
683.655	0.0156377
683.733	0.0157635
683.811	0.0156656
683.889	0.0156716
683.967	0.0156158
684.045	0.0154603
684.123	0.0157165
684.201	0.0155386
684.280	0.0156035
684.358	0.0156404
684.436	0.0155975
684.514	0.0157410
684.592	0.0159156
684.670	0.0159776
684.748	0.0159300
684.826	0.0159676
684.905	0.0158940
684.983	0.0160561
685.061	0.0161278
685.139	0.0161816
685.217	0.0160929
685.295	0.0160646
685.373	0.0161390
685.451	0.0161803
685.530	0.0161041
685.608	0.0160188
685.686	0.0160717
685.764	0.0159709
685.842	0.0160636
685.920	0.0161055
685.998	0.0158821
686.076	0.0155735
686.155	0.0157188
686.233	0.0156810
686.311	0.0156921
686.389	0.0157918
686.467	0.0158703
686.545	0.0159278
686.623	0.0159098
686.701	0.0162598
686.780	0.0163094
686.858	0.0165305
686.936	0.0167428
687.014	0.0169772
687.092	0.0171438
687.170	0.0172561
687.248	0.0174644
687.326	0.0174391
687.405	0.0173950
687.483	0.0173980
687.561	0.0172413
687.639	0.0169936
687.717	0.0167865
687.795	0.0167151
687.873	0.0163352
687.951	0.0159715
688.030	0.0157662
688.108	0.0153032
688.186	0.0150481
688.264	0.0148578
688.342	0.0145472
688.420	0.0141642
688.498	0.0140743
688.576	0.0138853
688.655	0.0136469
688.733	0.0135860
688.811	0.0135279
688.889	0.0134190
688.967	0.0133474
689.045	0.0136518
689.123	0.0136633
689.201	0.0141505
689.280	0.0144901
689.358	0.0150596
689.436	0.0156915
689.514	0.0162521
689.592	0.0168068
689.670	0.0173615
689.748	0.0179694
689.826	0.0183371
689.905	0.0189213
689.983	0.0189673
690.061	0.0190046
690.139	0.0193402
690.217	0.0190905
690.295	0.0190411
690.373	0.0189450
690.451	0.0187992
690.530	0.0186773
690.608	0.0184351
690.686	0.0182264
690.764	0.0176436
690.842	0.0175129
690.920	0.0173280
690.998	0.0167064
691.076	0.0163349
691.155	0.0159737
691.233	0.0156490
691.311	0.0152680
691.389	0.0147683
691.467	0.0147135
691.545	0.0145349
691.623	0.0145119
691.701	0.0143567
691.780	0.0146447
691.858	0.0144711
691.936	0.0145195
692.014	0.0145922
692.092	0.0145192
692.170	0.0144959
692.248	0.0143530
692.326	0.0141439
692.405	0.0141580
692.483	0.0139101
692.561	0.0138950
692.639	0.0136871
692.717	0.0137368
692.795	0.0136395
692.873	0.0136967
692.951	0.0138778
693.030	0.0139649
693.108	0.0139466
693.186	0.0141740
693.264	0.0141868
693.342	0.0143900
693.420	0.0146181
693.498	0.0148560
693.576	0.0151131
693.655	0.0154829
693.733	0.0158514
693.811	0.0164653
693.889	0.0168581
693.967	0.0174686
694.045	0.0179121
694.123	0.0185873
694.201	0.0191750
694.280	0.0196962
694.358	0.0201707
694.436	0.0205995
694.514	0.0208856
694.592	0.0211625
694.670	0.0213229
694.748	0.0213585
694.826	0.0212059
694.905	0.0209696
694.983	0.0207967
695.061	0.0203339
695.139	0.0198752
695.217	0.0192821
695.295	0.0184557
695.373	0.0178678
695.451	0.0170681
695.530	0.0161121
695.608	0.0154964
695.686	0.0148316
695.764	0.0141828
695.842	0.0135594
695.920	0.0130105
695.998	0.0127298
696.076	0.0123946
696.155	0.0120093
696.233	0.0120767
696.311	0.0121825
696.389	0.0122451
696.467	0.0122574
696.545	0.0124938
696.623	0.0128058
696.701	0.0129934
696.780	0.0133849
696.858	0.0137153
696.936	0.0139175
697.014	0.0140836
697.092	0.0142631
697.170	0.0144813
697.248	0.0145395
697.326	0.0148009
697.405	0.0148067
697.483	0.0146880
697.561	0.0145909
697.639	0.0143437
697.717	0.0142860
697.795	0.0144151
697.873	0.0141345
697.951	0.0140158
698.030	0.0139266
698.108	0.0139564
698.186	0.0140312
698.264	0.0144943
698.342	0.0148550
698.420	0.0150974
698.498	0.0158041
698.576	0.0166032
698.655	0.0172939
698.733	0.0181765
698.811	0.0188038
698.889	0.0198174
698.967	0.0205506
699.045	0.0212596
699.123	0.0217753
699.201	0.0224637
699.280	0.0228129
699.358	0.0229644
699.436	0.0229457
699.514	0.0228996
699.592	0.0226256
699.670	0.0221516
699.748	0.0215502
699.826	0.0208603
699.905	0.0201208
699.983	0.0190792
700.061	0.0180586
700.139	0.0170953
700.217	0.0160436
700.295	0.0149429
700.373	0.0140470
700.451	0.0132036
700.530	0.0125134
700.608	0.0117466
700.686	0.0113940
700.764	0.0109299
700.842	0.0107861
700.920	0.0104728
700.998	0.0105473
701.076	0.0108459
701.155	0.0110674
701.233	0.0111614
701.311	0.0113133
701.389	0.0117146
701.467	0.0119608
701.545	0.0122977
701.623	0.0126080
701.701	0.0128155
701.780	0.0131071
701.858	0.0132182
701.936	0.0136066
702.014	0.0139472
702.092	0.0143266
702.170	0.0146016
702.248	0.0148289
702.326	0.0152347
702.405	0.0154766
702.483	0.0157092
702.561	0.0159040
702.639	0.0160950
702.717	0.0164074
702.795	0.0164381
702.873	0.0164832
702.951	0.0167104
703.030	0.0169432
703.108	0.0170411
703.186	0.0171933
703.264	0.0176322
703.342	0.0176984
703.420	0.0177408
703.498	0.0180827
703.576	0.0184099
703.655	0.0188277
703.733	0.0191930
703.811	0.0195562
703.889	0.0201082
703.967	0.0205499
704.045	0.0209101
704.123	0.0212263
704.201	0.0217547
704.280	0.0217778
704.358	0.0218307
704.436	0.0217316
704.514	0.0215625
704.592	0.0211352
704.670	0.0205370
704.748	0.0200459
704.826	0.0190427
704.905	0.0180955
704.983	0.0170805
705.061	0.0160973
705.139	0.0150217
705.217	0.0138928
705.295	0.0130019
705.373	0.0120813
705.451	0.0113457
705.530	0.0107639
705.608	0.0102996
705.686	0.0100214
705.764	0.0100184
705.842	0.00997574
705.920	0.0102620
705.998	0.0106821
706.076	0.0111963
706.155	0.0118419
706.233	0.0125655
706.311	0.0131200
706.389	0.0137045
706.467	0.0142712
706.545	0.0147409
706.623	0.0151910
706.701	0.0154612
706.780	0.0158294
706.858	0.0159504
706.936	0.0161732
707.014	0.0160010
707.092	0.0162203
707.170	0.0161978
707.248	0.0161140
707.326	0.0160323
707.405	0.0159486
707.483	0.0157180
707.561	0.0157472
707.639	0.0157239
707.717	0.0155741
707.795	0.0154133
707.873	0.0153658
707.951	0.0155158
708.030	0.0156020
708.108	0.0155893
708.186	0.0157541
708.264	0.0155777
708.342	0.0159112
708.420	0.0163823
708.498	0.0165029
708.576	0.0165599
708.655	0.0170625
708.733	0.0172496
708.811	0.0173985
708.889	0.0179529
708.967	0.0181663
709.045	0.0184393
709.123	0.0186882
709.201	0.0190079
709.280	0.0191829
709.358	0.0192916
709.436	0.0193941
709.514	0.0193893
709.592	0.0195457
709.670	0.0193549
709.748	0.0190216
709.826	0.0187664
709.905	0.0182693
709.983	0.0180511
710.061	0.0177073
710.139	0.0170844
710.217	0.0166135
710.295	0.0161928
710.373	0.0159610
710.451	0.0154364
710.530	0.0152103
710.608	0.0148557
710.686	0.0148393
710.764	0.0146216
710.842	0.0145042
710.920	0.0146307
710.998	0.0146112
711.076	0.0147129
711.155	0.0147593
711.233	0.0147775
711.311	0.0149016
711.389	0.0147144
711.467	0.0148062
711.545	0.0146840
711.623	0.0147320
711.701	0.0146632
711.780	0.0142870
711.858	0.0143190
711.936	0.0142542
712.014	0.0141960
712.092	0.0139584
712.170	0.0138809
712.248	0.0138180
712.326	0.0139563
712.405	0.0140104
712.483	0.0141390
712.561	0.0141916
712.639	0.0143651
712.717	0.0147154
712.795	0.0148159
712.873	0.0148351
712.951	0.0153177
713.030	0.0153699
713.108	0.0155105
713.186	0.0156166
713.264	0.0155527
713.342	0.0158218
713.420	0.0158147
713.498	0.0158849
713.576	0.0158791
713.655	0.0159923
713.733	0.0159543
713.811	0.0159542
713.889	0.0160787
713.967	0.0161778
714.045	0.0162767
714.123	0.0163642
714.201	0.0166542
714.280	0.0169331
714.358	0.0170894
714.436	0.0173476
714.514	0.0177145
714.592	0.0178491
714.670	0.0181641
714.748	0.0183253
714.826	0.0186543
714.905	0.0187332
714.983	0.0188577
715.061	0.0189192
715.139	0.0189932
715.217	0.0189540
715.295	0.0188087
715.373	0.0186034
715.451	0.0183406
715.530	0.0181636
715.608	0.0178282
715.686	0.0174290
715.764	0.0169824
715.842	0.0167020
715.920	0.0163979
715.998	0.0159632
716.076	0.0157030
716.155	0.0153193
716.233	0.0149239
716.311	0.0147972
716.389	0.0144707
716.467	0.0143761
716.545	0.0141209
716.623	0.0139793
716.701	0.0139365
716.780	0.0140057
716.858	0.0138547
716.936	0.0138603
717.014	0.0140044
717.092	0.0141733
717.170	0.0142126
717.248	0.0144702
717.326	0.0146021
717.405	0.0147378
717.483	0.0148993
717.561	0.0150829
717.639	0.0153807
717.717	0.0155746
717.795	0.0156876
717.873	0.0157619
717.951	0.0158247
718.030	0.0157944
718.108	0.0159014
718.186	0.0159168
718.264	0.0157462
718.342	0.0157136
718.420	0.0158913
718.498	0.0157553
718.576	0.0157301
718.655	0.0158010
718.733	0.0158205
718.811	0.0157275
718.889	0.0155885
718.967	0.0156897
719.045	0.0155927
719.123	0.0156596
719.201	0.0158018
719.280	0.0157609
719.358	0.0160367
719.436	0.0162843
719.514	0.0163327
719.592	0.0166254
719.670	0.0169484
719.748	0.0172979
719.826	0.0174940
719.905	0.0176902
719.983	0.0180147
720.061	0.0180927
720.139	0.0180335
720.217	0.0181566
720.295	0.0180695
720.373	0.0182435
720.451	0.0180653
720.530	0.0177780
720.608	0.0176665
720.686	0.0173786
720.764	0.0172711
720.842	0.0169845
720.920	0.0169165
720.998	0.0166680
721.076	0.0164104
721.155	0.0161288
721.233	0.0159676
721.311	0.0157530
721.389	0.0156379
721.467	0.0153900
721.545	0.0151467
721.623	0.0149353
721.701	0.0149019
721.780	0.0147183
721.858	0.0145290
721.936	0.0143565
722.014	0.0142589
722.092	0.0143001
722.170	0.0142706
722.248	0.0142816
722.326	0.0144287
722.405	0.0146040
722.483	0.0147911
722.561	0.0150627
722.639	0.0153018
722.717	0.0155964
722.795	0.0159108
722.873	0.0162253
722.951	0.0165952
723.030	0.0166998
723.108	0.0169226
723.186	0.0171062
723.264	0.0172066
723.342	0.0172581
723.420	0.0171989
723.498	0.0171771
723.576	0.0170728
723.655	0.0168941
723.733	0.0167987
723.811	0.0164848
723.889	0.0162144
723.967	0.0159821
724.045	0.0156392
724.123	0.0154405
724.201	0.0151700
724.280	0.0149937
724.358	0.0148750
724.436	0.0146481
724.514	0.0145345
724.592	0.0145520
724.670	0.0146410
724.748	0.0148319
724.826	0.0149559
724.905	0.0151668
724.983	0.0155376
725.061	0.0160727
725.139	0.0162571
725.217	0.0163577
725.295	0.0168702
725.373	0.0172944
725.451	0.0173928
725.530	0.0176566
725.608	0.0178476
725.686	0.0178596
