05/17/2022	16:45:13	Ver.	4.1	UNKNOWN
Optical Delay	639.982744	Delta X		0.078125	Sweeps	1	Scan Rate	0/0
Coordinates	Axis 1	NaN	Axis 2	NaN	Axis 3	NaN	Axis 4	NaN	Axis 5	NaN	Axis 6	0.000000
TX Power	0.000000	RX Power	0.000000

639.983	0.0147357
640.061	0.0147556
640.139	0.0147331
640.217	0.0145747
640.295	0.0147967
640.373	0.0146160
640.451	0.0146764
640.530	0.0147488
640.608	0.0147410
640.686	0.0147065
640.764	0.0146954
640.842	0.0147118
640.920	0.0148072
640.998	0.0147542
641.076	0.0146859
641.155	0.0146955
641.233	0.0148389
641.311	0.0147554
641.389	0.0146256
641.467	0.0146786
641.545	0.0149000
641.623	0.0147480
641.701	0.0146454
641.780	0.0146674
641.858	0.0147109
641.936	0.0145538
642.014	0.0148724
642.092	0.0147963
642.170	0.0145375
642.248	0.0145735
642.326	0.0146843
642.405	0.0146740
642.483	0.0147057
642.561	0.0146094
642.639	0.0146672
642.717	0.0145290
642.795	0.0146704
642.873	0.0146139
642.951	0.0146468
643.030	0.0146495
643.108	0.0146967
643.186	0.0147563
643.264	0.0146940
643.342	0.0146330
643.420	0.0145104
643.498	0.0147091
643.576	0.0146832
643.655	0.0147455
643.733	0.0147980
643.811	0.0146680
643.889	0.0145567
643.967	0.0147530
644.045	0.0147806
644.123	0.0147339
644.201	0.0146396
644.280	0.0146347
644.358	0.0146309
644.436	0.0146233
644.514	0.0147221
644.592	0.0147828
644.670	0.0146675
644.748	0.0146970
644.826	0.0147137
644.905	0.0147416
644.983	0.0147605
645.061	0.0145945
645.139	0.0145677
645.217	0.0146564
645.295	0.0146176
645.373	0.0146924
645.451	0.0147177
645.530	0.0145963
645.608	0.0145848
645.686	0.0147517
645.764	0.0146622
645.842	0.0146980
645.920	0.0146177
645.998	0.0147697
646.076	0.0147598
646.155	0.0146915
646.233	0.0148390
646.311	0.0147102
646.389	0.0146555
646.467	0.0147802
646.545	0.0147292
646.623	0.0147523
646.701	0.0146206
646.780	0.0146931
646.858	0.0147142
646.936	0.0146941
647.014	0.0146460
647.092	0.0147089
647.170	0.0146551
647.248	0.0146903
647.326	0.0146735
647.405	0.0146381
647.483	0.0147261
647.561	0.0148369
647.639	0.0147050
647.717	0.0147227
647.795	0.0147538
647.873	0.0146182
647.951	0.0145934
648.030	0.0147105
648.108	0.0147066
648.186	0.0146053
648.264	0.0148277
648.342	0.0147211
648.420	0.0147230
648.498	0.0147284
648.576	0.0148470
648.655	0.0147308
648.733	0.0146093
648.811	0.0146968
648.889	0.0147777
648.967	0.0147205
649.045	0.0146597
649.123	0.0147432
649.201	0.0146825
649.280	0.0147896
649.358	0.0147202
649.436	0.0146465
649.514	0.0146725
649.592	0.0147434
649.670	0.0146817
649.748	0.0145990
649.826	0.0147655
649.905	0.0147184
649.983	0.0147547
650.061	0.0147077
650.139	0.0147240
650.217	0.0147588
650.295	0.0147610
650.373	0.0146656
650.451	0.0147382
650.530	0.0147482
650.608	0.0145956
650.686	0.0145598
650.764	0.0147615
650.842	0.0147773
650.920	0.0145885
650.998	0.0147139
651.076	0.0147574
651.155	0.0147221
651.233	0.0145972
651.311	0.0147752
651.389	0.0147641
651.467	0.0147611
651.545	0.0145724
651.623	0.0147171
651.701	0.0147198
651.780	0.0145328
651.858	0.0147112
651.936	0.0146787
652.014	0.0147767
652.092	0.0146710
652.170	0.0145554
652.248	0.0146017
652.326	0.0147740
652.405	0.0147354
652.483	0.0147990
652.561	0.0148129
652.639	0.0146722
652.717	0.0148207
652.795	0.0147098
652.873	0.0147427
652.951	0.0146647
653.030	0.0146017
653.108	0.0147237
653.186	0.0147163
653.264	0.0146835
653.342	0.0146664
653.420	0.0148490
653.498	0.0147767
653.576	0.0147205
653.655	0.0147243
653.733	0.0147775
653.811	0.0146613
653.889	0.0146497
653.967	0.0147668
654.045	0.0148378
654.123	0.0146954
654.201	0.0146172
654.280	0.0146677
654.358	0.0145844
654.436	0.0147396
654.514	0.0147549
654.592	0.0146091
654.670	0.0147675
654.748	0.0146924
654.826	0.0147871
654.905	0.0148045
654.983	0.0147399
655.061	0.0147528
655.139	0.0146975
655.217	0.0147522
655.295	0.0148322
655.373	0.0147360
655.451	0.0147871
655.530	0.0148230
655.608	0.0146346
655.686	0.0146413
655.764	0.0147012
655.842	0.0146802
655.920	0.0147283
655.998	0.0146633
656.076	0.0146812
656.155	0.0146480
656.233	0.0147263
656.311	0.0148302
656.389	0.0147810
656.467	0.0147005
656.545	0.0147604
656.623	0.0147848
656.701	0.0147132
656.780	0.0146851
656.858	0.0147522
656.936	0.0146984
657.014	0.0146942
657.092	0.0147845
657.170	0.0147356
657.248	0.0145740
657.326	0.0147237
657.405	0.0147871
657.483	0.0147176
657.561	0.0148539
657.639	0.0147937
657.717	0.0146758
657.795	0.0146258
657.873	0.0147401
657.951	0.0146718
658.030	0.0146612
658.108	0.0147551
658.186	0.0148219
658.264	0.0147395
658.342	0.0147462
658.420	0.0146588
658.498	0.0147717
658.576	0.0147552
658.655	0.0146985
658.733	0.0147375
658.811	0.0147684
658.889	0.0146760
658.967	0.0148417
659.045	0.0147302
659.123	0.0147290
659.201	0.0145998
659.280	0.0147681
659.358	0.0146575
659.436	0.0147598
659.514	0.0147484
659.592	0.0146130
659.670	0.0148124
659.748	0.0146904
659.826	0.0146590
659.905	0.0147805
659.983	0.0148487
660.061	0.0147364
660.139	0.0147050
660.217	0.0146510
660.295	0.0147395
660.373	0.0147971
660.451	0.0148015
660.530	0.0147028
660.608	0.0145561
660.686	0.0146729
660.764	0.0147884
660.842	0.0146553
660.920	0.0146560
660.998	0.0146989
661.076	0.0146708
661.155	0.0147417
661.233	0.0147274
661.311	0.0146315
661.389	0.0146238
661.467	0.0146339
661.545	0.0147899
661.623	0.0146329
661.701	0.0147774
661.780	0.0147716
661.858	0.0146799
661.936	0.0146539
662.014	0.0146306
662.092	0.0145718
662.170	0.0146742
662.248	0.0146523
662.326	0.0147953
662.405	0.0147011
662.483	0.0147022
662.561	0.0146089
662.639	0.0145564
662.717	0.0146279
662.795	0.0146268
662.873	0.0145958
662.951	0.0146126
663.030	0.0146739
663.108	0.0148228
663.186	0.0146708
663.264	0.0144538
663.342	0.0146358
663.420	0.0146987
663.498	0.0147008
663.576	0.0147038
663.655	0.0147831
663.733	0.0148574
663.811	0.0146770
663.889	0.0147392
663.967	0.0146442
664.045	0.0146025
664.123	0.0147503
664.201	0.0148666
664.280	0.0147258
664.358	0.0147907
664.436	0.0147340
664.514	0.0145868
664.592	0.0146223
664.670	0.0146690
664.748	0.0145540
664.826	0.0146509
664.905	0.0146673
664.983	0.0146856
665.061	0.0147656
665.139	0.0146578
665.217	0.0147322
665.295	0.0146300
665.373	0.0146227
665.451	0.0146962
665.530	0.0147171
665.608	0.0146707
665.686	0.0146419
665.764	0.0147422
665.842	0.0147179
665.920	0.0146763
665.998	0.0145527
666.076	0.0146610
666.155	0.0146684
666.233	0.0147011
666.311	0.0147621
666.389	0.0146246
666.467	0.0146449
666.545	0.0145332
666.623	0.0146877
666.701	0.0146726
666.780	0.0148078
666.858	0.0148024
666.936	0.0146404
667.014	0.0146925
667.092	0.0147150
667.170	0.0146048
667.248	0.0147094
667.326	0.0146617
667.405	0.0147585
667.483	0.0147808
667.561	0.0147530
667.639	0.0146998
667.717	0.0146542
667.795	0.0147668
667.873	0.0145951
667.951	0.0147013
668.030	0.0147617
668.108	0.0146877
668.186	0.0145743
668.264	0.0148222
668.342	0.0147190
668.420	0.0147211
668.498	0.0146262
668.576	0.0146211
668.655	0.0146905
668.733	0.0147678
668.811	0.0146754
668.889	0.0147011
668.967	0.0145494
669.045	0.0147795
669.123	0.0147285
669.201	0.0146536
669.280	0.0147388
669.358	0.0146917
669.436	0.0147878
669.514	0.0146381
669.592	0.0147392
669.670	0.0148033
669.748	0.0146751
669.826	0.0148100
669.905	0.0147065
669.983	0.0145250
670.061	0.0147064
670.139	0.0147341
670.217	0.0146198
670.295	0.0146497
670.373	0.0146298
670.451	0.0146956
670.530	0.0146628
670.608	0.0146933
670.686	0.0147186
670.764	0.0146562
670.842	0.0146246
670.920	0.0145752
670.998	0.0145461
671.076	0.0147029
671.155	0.0146258
671.233	0.0147524
671.311	0.0145563
671.389	0.0146040
671.467	0.0147593
671.545	0.0146968
671.623	0.0146962
671.701	0.0147194
671.780	0.0145995
671.858	0.0146185
671.936	0.0146738
672.014	0.0144777
672.092	0.0145065
672.170	0.0146400
672.248	0.0145551
672.326	0.0146816
672.405	0.0146192
672.483	0.0146761
672.561	0.0145882
672.639	0.0146497
672.717	0.0148029
672.795	0.0146304
672.873	0.0145845
672.951	0.0146671
673.030	0.0147218
673.108	0.0146972
673.186	0.0148250
673.264	0.0146610
673.342	0.0147126
673.420	0.0146429
673.498	0.0144457
673.576	0.0145924
673.655	0.0149232
673.733	0.0147469
673.811	0.0144567
673.889	0.0147211
673.967	0.0146982
674.045	0.0145670
674.123	0.0146152
674.201	0.0147665
674.280	0.0145921
674.358	0.0145398
674.436	0.0148244
674.514	0.0146977
674.592	0.0146468
674.670	0.0146852
674.748	0.0147477
674.826	0.0146696
674.905	0.0146480
674.983	0.0147924
675.061	0.0146761
675.139	0.0147107
675.217	0.0146655
675.295	0.0147393
675.373	0.0146176
675.451	0.0146332
675.530	0.0148052
675.608	0.0147681
675.686	0.0148439
675.764	0.0147166
675.842	0.0147796
675.920	0.0147594
675.998	0.0146062
676.076	0.0144934
676.155	0.0146446
676.233	0.0144962
676.311	0.0144528
676.389	0.0144944
676.467	0.0143510
676.545	0.0145110
676.623	0.0145982
676.701	0.0144475
676.780	0.0144454
676.858	0.0147444
676.936	0.0145969
677.014	0.0145417
677.092	0.0147395
677.170	0.0147544
677.248	0.0146349
677.326	0.0147526
677.405	0.0148490
677.483	0.0149423
677.561	0.0147859
677.639	0.0149065
677.717	0.0149189
677.795	0.0149329
677.873	0.0151052
677.951	0.0147215
678.030	0.0149164
678.108	0.0149969
678.186	0.0148360
678.264	0.0147147
678.342	0.0147574
678.420	0.0145911
678.498	0.0146590
678.576	0.0144244
678.655	0.0143174
678.733	0.0144306
678.811	0.0143589
678.889	0.0142927
678.967	0.0143489
679.045	0.0142671
679.123	0.0144065
679.201	0.0143722
679.280	0.0144555
679.358	0.0145654
679.436	0.0145792
679.514	0.0146840
679.592	0.0147071
679.670	0.0148656
679.748	0.0149751
679.826	0.0151031
679.905	0.0151631
679.983	0.0152280
680.061	0.0151602
680.139	0.0153415
680.217	0.0152238
680.295	0.0151970
680.373	0.0151035
680.451	0.0149681
680.530	0.0148585
680.608	0.0146970
680.686	0.0145293
680.764	0.0144999
680.842	0.0144073
680.920	0.0142322
680.998	0.0141165
681.076	0.0141667
681.155	0.0140686
681.233	0.0140449
681.311	0.0139687
681.389	0.0140530
681.467	0.0141024
681.545	0.0142149
681.623	0.0144138
681.701	0.0145695
681.780	0.0146996
681.858	0.0148405
681.936	0.0149931
682.014	0.0153275
682.092	0.0153111
682.170	0.0152450
682.248	0.0155173
682.326	0.0155411
682.405	0.0153080
682.483	0.0155125
682.561	0.0155721
682.639	0.0153220
682.717	0.0152164
682.795	0.0152150
682.873	0.0150001
682.951	0.0148814
683.030	0.0147908
683.108	0.0144632
683.186	0.0144711
683.264	0.0143781
683.342	0.0141429
683.420	0.0142382
683.498	0.0142745
683.576	0.0138715
683.655	0.0138686
683.733	0.0140256
683.811	0.0140150
683.889	0.0139336
683.967	0.0142240
684.045	0.0142138
684.123	0.0142445
684.201	0.0144902
684.280	0.0146709
684.358	0.0147659
684.436	0.0149750
684.514	0.0151770
684.592	0.0150206
684.670	0.0151940
684.748	0.0152728
684.826	0.0152384
684.905	0.0153664
684.983	0.0154072
685.061	0.0151542
685.139	0.0152730
685.217	0.0153877
685.295	0.0151711
685.373	0.0151859
685.451	0.0151158
685.530	0.0149979
685.608	0.0150568
685.686	0.0150880
685.764	0.0152079
685.842	0.0151342
685.920	0.0149692
685.998	0.0150621
686.076	0.0151397
686.155	0.0150209
686.233	0.0148342
686.311	0.0149670
686.389	0.0148107
686.467	0.0147733
686.545	0.0147018
686.623	0.0144589
686.701	0.0144998
686.780	0.0145171
686.858	0.0144321
686.936	0.0144586
687.014	0.0144221
687.092	0.0144778
687.170	0.0145708
687.248	0.0142499
687.326	0.0143010
687.405	0.0142451
687.483	0.0141018
687.561	0.0139720
687.639	0.0137759
687.717	0.0138148
687.795	0.0136147
687.873	0.0137043
687.951	0.0138984
688.030	0.0141223
688.108	0.0141398
688.186	0.0142456
688.264	0.0144147
688.342	0.0146621
688.420	0.0147298
688.498	0.0147839
688.576	0.0150961
688.655	0.0148588
688.733	0.0151603
688.811	0.0151233
688.889	0.0153368
688.967	0.0152354
689.045	0.0152726
689.123	0.0153456
689.201	0.0155022
689.280	0.0154931
689.358	0.0156168
689.436	0.0157150
689.514	0.0156990
689.592	0.0158161
689.670	0.0156786
689.748	0.0156449
689.826	0.0156197
689.905	0.0156333
689.983	0.0154806
690.061	0.0155135
690.139	0.0154678
690.217	0.0154747
690.295	0.0153963
690.373	0.0151928
690.451	0.0153602
690.530	0.0152328
690.608	0.0152286
690.686	0.0150591
690.764	0.0149020
690.842	0.0148064
690.920	0.0144459
690.998	0.0143582
691.076	0.0143991
691.155	0.0138889
691.233	0.0136707
691.311	0.0134911
691.389	0.0133184
691.467	0.0130708
691.545	0.0129254
691.623	0.0127439
691.701	0.0125697
691.780	0.0124369
691.858	0.0123145
691.936	0.0123014
692.014	0.0122358
692.092	0.0122695
692.170	0.0122704
692.248	0.0122998
692.326	0.0125072
692.405	0.0125776
692.483	0.0126881
692.561	0.0130714
692.639	0.0132294
692.717	0.0136443
692.795	0.0141338
692.873	0.0144891
692.951	0.0150031
693.030	0.0155139
693.108	0.0160455
693.186	0.0167343
693.264	0.0171872
693.342	0.0176762
693.420	0.0182204
693.498	0.0186071
693.576	0.0189961
693.655	0.0193474
693.733	0.0195531
693.811	0.0194125
693.889	0.0195906
693.967	0.0194298
694.045	0.0192673
694.123	0.0189315
694.201	0.0186319
694.280	0.0179272
694.358	0.0171725
694.436	0.0166560
694.514	0.0160557
694.592	0.0150830
694.670	0.0146813
694.748	0.0138757
694.826	0.0131137
694.905	0.0128394
694.983	0.0123677
695.061	0.0119244
695.139	0.0115236
695.217	0.0112889
695.295	0.0110620
695.373	0.0110566
695.451	0.0111201
695.530	0.0111302
695.608	0.0113660
695.686	0.0115685
695.764	0.0118465
695.842	0.0121020
695.920	0.0124365
695.998	0.0128130
696.076	0.0132066
696.155	0.0133894
696.233	0.0137705
696.311	0.0139884
696.389	0.0141025
696.467	0.0141013
696.545	0.0143576
696.623	0.0141962
696.701	0.0140929
696.780	0.0141378
696.858	0.0138845
696.936	0.0137065
697.014	0.0137874
697.092	0.0135574
697.170	0.0133529
697.248	0.0132578
697.326	0.0131536
697.405	0.0131059
697.483	0.0132013
697.561	0.0132632
697.639	0.0133718
697.717	0.0134389
697.795	0.0136630
697.873	0.0139035
697.951	0.0141798
698.030	0.0146237
698.108	0.0152370
698.186	0.0158534
698.264	0.0165061
698.342	0.0172671
698.420	0.0180196
698.498	0.0187064
698.576	0.0195155
698.655	0.0200736
698.733	0.0203641
698.811	0.0206232
698.889	0.0208195
698.967	0.0206637
699.045	0.0204514
699.123	0.0201594
699.201	0.0196866
699.280	0.0190319
699.358	0.0183395
699.436	0.0174602
699.514	0.0165793
699.592	0.0157801
699.670	0.0148867
699.748	0.0138088
699.826	0.0132619
699.905	0.0125455
699.983	0.0117232
700.061	0.0112577
700.139	0.0107794
700.217	0.0103952
700.295	0.0102068
700.373	0.00992691
700.451	0.00998260
700.530	0.0102374
700.608	0.0102880
700.686	0.0106989
700.764	0.0109243
700.842	0.0113045
700.920	0.0115225
700.998	0.0118363
701.076	0.0122839
701.155	0.0123950
701.233	0.0124618
701.311	0.0125541
701.389	0.0128810
701.467	0.0130112
701.545	0.0129829
701.623	0.0130954
701.701	0.0131853
701.780	0.0133788
701.858	0.0133782
701.936	0.0135257
702.014	0.0136292
702.092	0.0137082
702.170	0.0139047
702.248	0.0140868
702.326	0.0142812
702.405	0.0145194
702.483	0.0146045
702.561	0.0148637
702.639	0.0151187
702.717	0.0152721
702.795	0.0156873
702.873	0.0158003
702.951	0.0160466
703.030	0.0163716
703.108	0.0168076
703.186	0.0172432
703.264	0.0176711
703.342	0.0180061
703.420	0.0184632
703.498	0.0189307
703.576	0.0195216
703.655	0.0199506
703.733	0.0202075
703.811	0.0205719
703.889	0.0207610
703.967	0.0208572
704.045	0.0210223
704.123	0.0207141
704.201	0.0204381
704.280	0.0201727
704.358	0.0194954
704.436	0.0187203
704.514	0.0179626
704.592	0.0169803
704.670	0.0159859
704.748	0.0150114
704.826	0.0138132
704.905	0.0126807
704.983	0.0118486
705.061	0.0108901
705.139	0.00985863
705.217	0.00921059
705.295	0.00863586
705.373	0.00835197
705.451	0.00788269
705.530	0.00780418
705.608	0.00778458
705.686	0.00817375
705.764	0.00823845
705.842	0.00879860
705.920	0.00945099
705.998	0.00992561
706.076	0.0105069
706.155	0.0113103
706.233	0.0118903
706.311	0.0123997
706.389	0.0129865
706.467	0.0133752
706.545	0.0139978
706.623	0.0144086
706.701	0.0148112
706.780	0.0149334
706.858	0.0150659
706.936	0.0152964
707.014	0.0155196
707.092	0.0155228
707.170	0.0155756
707.248	0.0156252
707.326	0.0155864
707.405	0.0155550
707.483	0.0154819
707.561	0.0155989
707.639	0.0155029
707.717	0.0154536
707.795	0.0154962
707.873	0.0155876
707.951	0.0154536
708.030	0.0153719
708.108	0.0153880
708.186	0.0154953
708.264	0.0156808
708.342	0.0158791
708.420	0.0160413
708.498	0.0162486
708.576	0.0166222
708.655	0.0167363
708.733	0.0171195
708.811	0.0174411
708.889	0.0178105
708.967	0.0182951
709.045	0.0186758
709.123	0.0190665
709.201	0.0193355
709.280	0.0197344
709.358	0.0198441
709.436	0.0200242
709.514	0.0200837
709.592	0.0198945
709.670	0.0196540
709.748	0.0194497
709.826	0.0188281
709.905	0.0184721
709.983	0.0178487
710.061	0.0167978
710.139	0.0159972
710.217	0.0152470
710.295	0.0142503
710.373	0.0132829
710.451	0.0125041
710.530	0.0117834
710.608	0.0108012
710.686	0.0100177
710.764	0.00946724
710.842	0.00908577
710.920	0.00874771
710.998	0.00865555
711.076	0.00851791
711.155	0.00854515
711.233	0.00870384
711.311	0.00903915
711.389	0.00933891
711.467	0.00967430
711.545	0.0104140
711.623	0.0108071
711.701	0.0114705
711.780	0.0121269
711.858	0.0126563
711.936	0.0132653
712.014	0.0137308
712.092	0.0141877
712.170	0.0147332
712.248	0.0150933
712.326	0.0152844
712.405	0.0155954
712.483	0.0156889
712.561	0.0158652
712.639	0.0159523
712.717	0.0160014
712.795	0.0160529
712.873	0.0159522
712.951	0.0157770
713.030	0.0157592
713.108	0.0156739
713.186	0.0156781
713.264	0.0155836
713.342	0.0154439
713.420	0.0154462
713.498	0.0152451
713.576	0.0152504
713.655	0.0152073
713.733	0.0153413
713.811	0.0154971
713.889	0.0154594
713.967	0.0154943
714.045	0.0158266
714.123	0.0159721
714.201	0.0160064
714.280	0.0163207
714.358	0.0167802
714.436	0.0170755
714.514	0.0173137
714.592	0.0176814
714.670	0.0179478
714.748	0.0182242
714.826	0.0185524
714.905	0.0186517
714.983	0.0189122
715.061	0.0188055
715.139	0.0187548
715.217	0.0186024
715.295	0.0183649
715.373	0.0179422
715.451	0.0173919
715.530	0.0167020
715.608	0.0160768
715.686	0.0153884
715.764	0.0145306
715.842	0.0138222
715.920	0.0131314
715.998	0.0124681
716.076	0.0118570
716.155	0.0112306
716.233	0.0108315
716.311	0.0104417
716.389	0.0102211
716.467	0.00995049
716.545	0.00973808
716.623	0.00988274
716.701	0.0102465
716.780	0.0103001
716.858	0.0106376
716.936	0.0111286
717.014	0.0114039
717.092	0.0119437
717.170	0.0124666
717.248	0.0127631
717.326	0.0134727
717.405	0.0139811
717.483	0.0143620
717.561	0.0148759
717.639	0.0152503
717.717	0.0156466
717.795	0.0158025
717.873	0.0159308
717.951	0.0160869
718.030	0.0160255
718.108	0.0161100
718.186	0.0160143
718.264	0.0156982
718.342	0.0153889
718.420	0.0152019
718.498	0.0150292
718.576	0.0147928
718.655	0.0146081
718.733	0.0144493
718.811	0.0145010
718.889	0.0142991
718.967	0.0144247
719.045	0.0144255
719.123	0.0146828
719.201	0.0148118
719.280	0.0150010
719.358	0.0151963
719.436	0.0153640
719.514	0.0157416
719.592	0.0160947
719.670	0.0163545
719.748	0.0166238
719.826	0.0169338
719.905	0.0171010
719.983	0.0173391
720.061	0.0174770
720.139	0.0174953
720.217	0.0175266
720.295	0.0174226
720.373	0.0173736
720.451	0.0171303
720.530	0.0169270
720.608	0.0166809
720.686	0.0163055
720.764	0.0159641
720.842	0.0155923
720.920	0.0152746
720.998	0.0148080
721.076	0.0144561
721.155	0.0140205
721.233	0.0137171
721.311	0.0133777
721.389	0.0128593
721.467	0.0127457
721.545	0.0125116
721.623	0.0121353
721.701	0.0122005
721.780	0.0121360
721.858	0.0119734
721.936	0.0119038
722.014	0.0121034
722.092	0.0119870
722.170	0.0120489
722.248	0.0123605
722.326	0.0125780
722.405	0.0127831
722.483	0.0130062
722.561	0.0133762
722.639	0.0136368
722.717	0.0139752
722.795	0.0143879
722.873	0.0145893
722.951	0.0147763
723.030	0.0150588
723.108	0.0152863
723.186	0.0154916
723.264	0.0154217
723.342	0.0154295
723.420	0.0153655
723.498	0.0154855
723.576	0.0154267
723.655	0.0154020
723.733	0.0152414
723.811	0.0153297
723.889	0.0152222
723.967	0.0149613
724.045	0.0148627
724.123	0.0148349
724.201	0.0148285
724.280	0.0148869
724.358	0.0147226
724.436	0.0147021
724.514	0.0146487
724.592	0.0147730
724.670	0.0149646
724.748	0.0148338
724.826	0.0150193
724.905	0.0150709
724.983	0.0151277
725.061	0.0152719
725.139	0.0152224
725.217	0.0153807
725.295	0.0153445
725.373	0.0153991
725.451	0.0154282
725.530	0.0154058
725.608	0.0153323
