05/17/2022	16:46:13	Ver.	4.1	UNKNOWN
Optical Delay	639.982744	Delta X		0.078125	Sweeps	1	Scan Rate	0/0
Coordinates	Axis 1	NaN	Axis 2	NaN	Axis 3	NaN	Axis 4	NaN	Axis 5	NaN	Axis 6	0.000000
TX Power	0.000000	RX Power	0.000000

639.983	0.0158986
640.061	0.0158858
640.139	0.0158898
640.217	0.0159176
640.295	0.0159375
640.373	0.0160728
640.451	0.0159325
640.530	0.0158035
640.608	0.0159102
640.686	0.0159635
640.764	0.0159801
640.842	0.0158872
640.920	0.0158949
640.998	0.0159611
641.076	0.0159917
641.155	0.0159383
641.233	0.0158677
641.311	0.0158208
641.389	0.0157870
641.467	0.0158508
641.545	0.0159119
641.623	0.0159116
641.701	0.0158112
641.780	0.0159491
641.858	0.0159749
641.936	0.0159018
642.014	0.0159288
642.092	0.0157880
642.170	0.0159294
642.248	0.0158885
642.326	0.0158855
642.405	0.0158811
642.483	0.0159595
642.561	0.0160293
642.639	0.0159381
642.717	0.0159261
642.795	0.0159518
642.873	0.0159316
642.951	0.0160100
643.030	0.0159697
643.108	0.0160403
643.186	0.0159912
643.264	0.0158207
643.342	0.0159357
643.420	0.0160389
643.498	0.0158762
643.576	0.0159338
643.655	0.0160143
643.733	0.0160229
643.811	0.0159623
643.889	0.0158959
643.967	0.0160429
644.045	0.0159947
644.123	0.0159716
644.201	0.0159052
644.280	0.0159478
644.358	0.0159280
644.436	0.0160090
644.514	0.0159208
644.592	0.0158461
644.670	0.0159789
644.748	0.0160127
644.826	0.0158372
644.905	0.0159195
644.983	0.0159163
645.061	0.0159869
645.139	0.0159724
645.217	0.0159454
645.295	0.0159344
645.373	0.0158117
645.451	0.0160576
645.530	0.0159468
645.608	0.0159169
645.686	0.0158385
645.764	0.0159913
645.842	0.0158624
645.920	0.0158916
645.998	0.0159705
646.076	0.0159167
646.155	0.0159148
646.233	0.0158870
646.311	0.0159626
646.389	0.0158476
646.467	0.0159116
646.545	0.0160290
646.623	0.0160242
646.701	0.0159043
646.780	0.0158341
646.858	0.0159668
646.936	0.0160235
647.014	0.0158350
647.092	0.0158447
647.170	0.0159866
647.248	0.0159813
647.326	0.0159727
647.405	0.0159514
647.483	0.0159032
647.561	0.0159357
647.639	0.0157715
647.717	0.0158359
647.795	0.0161321
647.873	0.0159547
647.951	0.0158718
648.030	0.0159139
648.108	0.0159709
648.186	0.0159039
648.264	0.0159035
648.342	0.0159689
648.420	0.0159972
648.498	0.0158494
648.576	0.0159358
648.655	0.0160166
648.733	0.0159628
648.811	0.0159344
648.889	0.0159306
648.967	0.0157490
649.045	0.0160472
649.123	0.0158543
649.201	0.0159092
649.280	0.0158778
649.358	0.0157932
649.436	0.0158160
649.514	0.0160075
649.592	0.0158689
649.670	0.0158917
649.748	0.0157789
649.826	0.0159995
649.905	0.0157993
649.983	0.0158405
650.061	0.0160203
650.139	0.0159608
650.217	0.0158710
650.295	0.0159126
650.373	0.0158299
650.451	0.0159968
650.530	0.0158329
650.608	0.0160112
650.686	0.0159110
650.764	0.0158163
650.842	0.0157941
650.920	0.0158987
650.998	0.0158858
651.076	0.0159382
651.155	0.0160109
651.233	0.0159164
651.311	0.0158479
651.389	0.0159448
651.467	0.0159607
651.545	0.0157876
651.623	0.0158591
651.701	0.0159026
651.780	0.0159072
651.858	0.0158649
651.936	0.0158614
652.014	0.0159734
652.092	0.0158443
652.170	0.0159223
652.248	0.0158952
652.326	0.0160099
652.405	0.0159962
652.483	0.0159398
652.561	0.0158358
652.639	0.0158781
652.717	0.0159418
652.795	0.0158873
652.873	0.0159174
652.951	0.0158696
653.030	0.0159993
653.108	0.0159764
653.186	0.0158976
653.264	0.0159785
653.342	0.0159809
653.420	0.0159170
653.498	0.0159036
653.576	0.0158786
653.655	0.0159175
653.733	0.0157298
653.811	0.0158331
653.889	0.0159859
653.967	0.0159057
654.045	0.0159168
654.123	0.0159212
654.201	0.0158598
654.280	0.0158898
654.358	0.0159118
654.436	0.0159618
654.514	0.0158072
654.592	0.0158466
654.670	0.0159467
654.748	0.0159044
654.826	0.0159306
654.905	0.0159057
654.983	0.0157822
655.061	0.0159951
655.139	0.0159312
655.217	0.0159028
655.295	0.0158791
655.373	0.0159632
655.451	0.0159372
655.530	0.0159055
655.608	0.0158566
655.686	0.0158994
655.764	0.0158485
655.842	0.0158437
655.920	0.0159958
655.998	0.0158134
656.076	0.0160465
656.155	0.0159318
656.233	0.0158541
656.311	0.0158675
656.389	0.0158166
656.467	0.0158587
656.545	0.0158955
656.623	0.0159342
656.701	0.0158816
656.780	0.0159462
656.858	0.0160019
656.936	0.0158839
657.014	0.0159452
657.092	0.0159792
657.170	0.0158838
657.248	0.0159651
657.326	0.0159180
657.405	0.0159979
657.483	0.0158787
657.561	0.0159052
657.639	0.0159541
657.717	0.0159004
657.795	0.0158427
657.873	0.0159013
657.951	0.0159212
658.030	0.0160120
658.108	0.0159093
658.186	0.0159267
658.264	0.0158264
658.342	0.0158871
658.420	0.0158973
658.498	0.0160888
658.576	0.0159326
658.655	0.0157818
658.733	0.0158604
658.811	0.0159438
658.889	0.0158055
658.967	0.0157968
659.045	0.0158572
659.123	0.0158795
659.201	0.0160198
659.280	0.0158312
659.358	0.0158427
659.436	0.0159023
659.514	0.0158243
659.592	0.0158575
659.670	0.0158232
659.748	0.0158313
659.826	0.0158743
659.905	0.0158572
659.983	0.0159203
660.061	0.0160109
660.139	0.0157900
660.217	0.0158359
660.295	0.0158439
660.373	0.0158571
660.451	0.0159541
660.530	0.0158845
660.608	0.0158498
660.686	0.0158697
660.764	0.0159317
660.842	0.0158781
660.920	0.0158743
660.998	0.0158121
661.076	0.0158015
661.155	0.0158828
661.233	0.0158125
661.311	0.0158295
661.389	0.0158361
661.467	0.0159885
661.545	0.0160292
661.623	0.0158154
661.701	0.0159686
661.780	0.0158640
661.858	0.0157623
661.936	0.0158620
662.014	0.0158817
662.092	0.0157206
662.170	0.0158837
662.248	0.0158729
662.326	0.0157819
662.405	0.0159294
662.483	0.0157785
662.561	0.0158469
662.639	0.0158801
662.717	0.0159056
662.795	0.0159282
662.873	0.0158930
662.951	0.0159352
663.030	0.0159063
663.108	0.0159734
663.186	0.0158607
663.264	0.0159037
663.342	0.0158530
663.420	0.0159361
663.498	0.0159884
663.576	0.0158218
663.655	0.0160637
663.733	0.0158359
663.811	0.0159653
663.889	0.0158613
663.967	0.0159708
664.045	0.0158701
664.123	0.0158917
664.201	0.0159244
664.280	0.0159543
664.358	0.0159760
664.436	0.0158234
664.514	0.0157571
664.592	0.0159416
664.670	0.0159538
664.748	0.0160211
664.826	0.0159673
664.905	0.0159582
664.983	0.0159644
665.061	0.0159248
665.139	0.0159741
665.217	0.0160283
665.295	0.0158112
665.373	0.0158611
665.451	0.0158241
665.530	0.0160248
665.608	0.0159278
665.686	0.0159056
665.764	0.0159682
665.842	0.0160451
665.920	0.0159403
665.998	0.0160194
666.076	0.0159843
666.155	0.0158817
666.233	0.0159583
666.311	0.0159582
666.389	0.0158129
666.467	0.0159102
666.545	0.0159734
666.623	0.0159094
666.701	0.0158672
666.780	0.0158564
666.858	0.0159790
666.936	0.0159203
667.014	0.0159442
667.092	0.0158334
667.170	0.0159282
667.248	0.0159871
667.326	0.0159530
667.405	0.0158836
667.483	0.0159262
667.561	0.0159666
667.639	0.0158634
667.717	0.0158607
667.795	0.0158900
667.873	0.0159043
667.951	0.0158836
668.030	0.0159720
668.108	0.0159988
668.186	0.0159294
668.264	0.0160344
668.342	0.0159344
668.420	0.0159018
668.498	0.0160254
668.576	0.0160171
668.655	0.0157458
668.733	0.0158350
668.811	0.0158730
668.889	0.0160308
668.967	0.0159126
669.045	0.0159672
669.123	0.0158897
669.201	0.0157968
669.280	0.0159186
669.358	0.0159433
669.436	0.0157732
669.514	0.0158152
669.592	0.0158908
669.670	0.0159179
669.748	0.0159814
669.826	0.0158956
669.905	0.0158898
669.983	0.0159541
670.061	0.0159500
670.139	0.0158517
670.217	0.0159367
670.295	0.0158577
670.373	0.0158942
670.451	0.0158781
670.530	0.0158936
670.608	0.0159948
670.686	0.0159245
670.764	0.0159102
670.842	0.0158858
670.920	0.0158891
670.998	0.0158257
671.076	0.0157972
671.155	0.0159690
671.233	0.0158463
671.311	0.0159404
671.389	0.0158237
671.467	0.0158298
671.545	0.0158366
671.623	0.0158457
671.701	0.0159171
671.780	0.0159689
671.858	0.0159775
671.936	0.0158541
672.014	0.0157861
672.092	0.0160363
672.170	0.0160750
672.248	0.0159132
672.326	0.0159747
672.405	0.0159826
672.483	0.0160316
672.561	0.0161283
672.639	0.0159855
672.717	0.0159149
672.795	0.0158952
672.873	0.0160783
672.951	0.0161011
673.030	0.0159978
673.108	0.0159920
673.186	0.0160027
673.264	0.0159190
673.342	0.0157855
673.420	0.0158215
673.498	0.0157935
673.576	0.0157043
673.655	0.0158622
673.733	0.0157858
673.811	0.0156926
673.889	0.0158495
673.967	0.0158406
674.045	0.0158821
674.123	0.0160300
674.201	0.0159206
674.280	0.0157887
674.358	0.0159348
674.436	0.0159740
674.514	0.0160027
674.592	0.0160119
674.670	0.0162307
674.748	0.0160876
674.826	0.0161368
674.905	0.0162316
674.983	0.0162531
675.061	0.0162980
675.139	0.0161619
675.217	0.0160152
675.295	0.0161148
675.373	0.0161716
675.451	0.0161198
675.530	0.0158739
675.608	0.0159505
675.686	0.0159192
675.764	0.0156648
675.842	0.0157363
675.920	0.0157415
675.998	0.0156847
676.076	0.0154258
676.155	0.0156492
676.233	0.0156361
676.311	0.0156199
676.389	0.0158032
676.467	0.0157840
676.545	0.0157645
676.623	0.0158595
676.701	0.0159216
676.780	0.0160494
676.858	0.0162238
676.936	0.0161609
677.014	0.0163081
677.092	0.0163030
677.170	0.0163274
677.248	0.0164352
677.326	0.0163941
677.405	0.0163415
677.483	0.0163793
677.561	0.0163358
677.639	0.0161740
677.717	0.0162464
677.795	0.0159738
677.873	0.0159023
677.951	0.0157371
678.030	0.0156681
678.108	0.0156673
678.186	0.0157684
678.264	0.0155130
678.342	0.0155822
678.420	0.0155766
678.498	0.0157013
678.576	0.0154978
678.655	0.0156358
678.733	0.0157576
678.811	0.0158053
678.889	0.0159290
678.967	0.0160120
679.045	0.0159414
679.123	0.0160773
679.201	0.0162051
679.280	0.0161854
679.358	0.0163128
679.436	0.0163174
679.514	0.0161899
679.592	0.0161594
679.670	0.0160941
679.748	0.0162098
679.826	0.0161749
679.905	0.0161526
679.983	0.0162292
680.061	0.0160196
680.139	0.0159441
680.217	0.0160445
680.295	0.0160514
680.373	0.0159126
680.451	0.0159415
680.530	0.0159609
680.608	0.0160358
680.686	0.0159612
680.764	0.0160027
680.842	0.0159371
680.920	0.0158744
680.998	0.0158229
681.076	0.0158243
681.155	0.0159512
681.233	0.0158157
681.311	0.0157955
681.389	0.0159172
681.467	0.0158504
681.545	0.0157604
681.623	0.0156550
681.701	0.0159657
681.780	0.0159949
681.858	0.0159920
681.936	0.0158526
682.014	0.0158810
682.092	0.0158831
682.170	0.0160281
682.248	0.0159081
682.326	0.0159421
682.405	0.0160574
682.483	0.0160134
682.561	0.0160406
682.639	0.0160159
682.717	0.0159933
682.795	0.0160344
682.873	0.0161251
682.951	0.0162168
683.030	0.0160320
683.108	0.0160184
683.186	0.0160375
683.264	0.0161347
683.342	0.0160654
683.420	0.0160727
683.498	0.0158524
683.576	0.0157824
683.655	0.0157346
683.733	0.0156086
683.811	0.0157510
683.889	0.0157485
683.967	0.0156152
684.045	0.0156958
684.123	0.0158228
684.201	0.0160307
684.280	0.0161785
684.358	0.0162164
684.436	0.0163082
684.514	0.0163104
684.592	0.0163495
684.670	0.0164893
684.748	0.0164919
684.826	0.0164587
684.905	0.0165156
684.983	0.0163620
685.061	0.0163067
685.139	0.0163766
685.217	0.0163046
685.295	0.0162912
685.373	0.0161282
685.451	0.0160880
685.530	0.0159190
685.608	0.0157762
685.686	0.0154755
685.764	0.0153391
685.842	0.0150976
685.920	0.0149302
685.998	0.0148258
686.076	0.0147346
686.155	0.0148983
686.233	0.0146542
686.311	0.0149347
686.389	0.0148969
686.467	0.0150198
686.545	0.0149422
686.623	0.0151678
686.701	0.0152337
686.780	0.0155543
686.858	0.0156778
686.936	0.0158333
687.014	0.0160974
687.092	0.0161192
687.170	0.0161855
687.248	0.0164450
687.326	0.0165070
687.405	0.0165744
687.483	0.0167590
687.561	0.0166774
687.639	0.0167307
687.717	0.0167593
687.795	0.0166345
687.873	0.0165044
687.951	0.0165684
688.030	0.0163766
688.108	0.0165135
688.186	0.0162828
688.264	0.0162335
688.342	0.0162120
688.420	0.0159414
688.498	0.0157381
688.576	0.0158524
688.655	0.0157382
688.733	0.0155132
688.811	0.0154951
688.889	0.0154292
688.967	0.0154667
689.045	0.0154916
689.123	0.0154346
689.201	0.0154462
689.280	0.0156981
689.358	0.0157784
689.436	0.0159734
689.514	0.0161206
689.592	0.0161638
689.670	0.0162984
689.748	0.0163567
689.826	0.0164493
689.905	0.0166168
689.983	0.0166423
690.061	0.0164232
690.139	0.0164912
690.217	0.0165303
690.295	0.0162192
690.373	0.0160847
690.451	0.0158917
690.530	0.0156270
690.608	0.0154406
690.686	0.0151749
690.764	0.0149245
690.842	0.0147060
690.920	0.0144435
690.998	0.0141615
691.076	0.0140454
691.155	0.0139288
691.233	0.0140208
691.311	0.0139030
691.389	0.0139532
691.467	0.0140888
691.545	0.0141191
691.623	0.0142510
691.701	0.0145100
691.780	0.0149348
691.858	0.0152697
691.936	0.0156295
692.014	0.0159244
692.092	0.0166228
692.170	0.0170019
692.248	0.0174274
692.326	0.0176834
692.405	0.0178963
692.483	0.0183373
692.561	0.0185905
692.639	0.0186434
692.717	0.0190263
692.795	0.0190969
692.873	0.0190757
692.951	0.0190337
693.030	0.0191822
693.108	0.0190474
693.186	0.0189540
693.264	0.0188714
693.342	0.0185204
693.420	0.0184245
693.498	0.0181143
693.576	0.0176142
693.655	0.0172740
693.733	0.0166856
693.811	0.0162322
693.889	0.0156986
693.967	0.0151890
694.045	0.0148405
694.123	0.0143148
694.201	0.0137619
694.280	0.0135156
694.358	0.0132813
694.436	0.0129372
694.514	0.0127394
694.592	0.0127607
694.670	0.0127473
694.748	0.0127744
694.826	0.0128397
694.905	0.0129048
694.983	0.0130392
695.061	0.0133963
695.139	0.0135168
695.217	0.0138348
695.295	0.0140026
695.373	0.0144585
695.451	0.0146693
695.530	0.0148589
695.608	0.0152927
695.686	0.0155775
695.764	0.0157500
695.842	0.0158906
695.920	0.0160088
695.998	0.0159326
696.076	0.0160143
696.155	0.0157582
696.233	0.0155741
696.311	0.0156154
696.389	0.0154079
696.467	0.0153155
696.545	0.0151984
696.623	0.0150787
696.701	0.0151866
696.780	0.0152768
696.858	0.0153106
696.936	0.0154813
697.014	0.0157957
697.092	0.0159644
697.170	0.0166200
697.248	0.0170274
697.326	0.0174255
697.405	0.0180800
697.483	0.0186310
697.561	0.0190034
697.639	0.0194888
697.717	0.0200123
697.795	0.0202852
697.873	0.0207030
697.951	0.0210681
698.030	0.0210186
698.108	0.0209264
698.186	0.0208273
698.264	0.0206355
698.342	0.0202461
698.420	0.0198367
698.498	0.0192115
698.576	0.0186933
698.655	0.0178760
698.733	0.0172169
698.811	0.0161279
698.889	0.0152960
698.967	0.0145783
699.045	0.0137948
699.123	0.0131189
699.201	0.0125301
699.280	0.0119080
699.358	0.0115213
699.436	0.0113155
699.514	0.0111031
699.592	0.0110445
699.670	0.0112878
699.748	0.0116867
699.826	0.0119800
699.905	0.0124106
699.983	0.0129716
700.061	0.0135746
700.139	0.0140559
700.217	0.0146299
700.295	0.0152167
700.373	0.0155652
700.451	0.0158095
700.530	0.0162057
700.608	0.0163393
700.686	0.0165134
700.764	0.0164848
700.842	0.0163392
700.920	0.0160372
700.998	0.0159931
701.076	0.0158152
701.155	0.0154490
701.233	0.0151460
701.311	0.0149352
701.389	0.0147201
701.467	0.0143513
701.545	0.0143173
701.623	0.0143217
701.701	0.0141676
701.780	0.0142477
701.858	0.0146030
701.936	0.0147826
702.014	0.0150349
702.092	0.0153935
702.170	0.0157318
702.248	0.0162402
702.326	0.0167568
702.405	0.0171098
702.483	0.0175899
702.561	0.0181988
702.639	0.0185080
702.717	0.0190001
702.795	0.0195438
702.873	0.0200591
702.951	0.0205119
703.030	0.0208625
703.108	0.0212379
703.186	0.0216046
703.264	0.0218122
703.342	0.0218671
703.420	0.0218176
703.498	0.0217922
703.576	0.0213724
703.655	0.0210220
703.733	0.0205811
703.811	0.0200130
703.889	0.0192576
703.967	0.0182520
704.045	0.0174063
704.123	0.0165742
704.201	0.0156867
704.280	0.0148171
704.358	0.0139414
704.436	0.0130105
704.514	0.0124240
704.592	0.0115933
704.670	0.0108569
704.748	0.0102839
704.826	0.00980217
704.905	0.00958130
704.983	0.00934494
705.061	0.00924400
705.139	0.00924889
705.217	0.00954147
705.295	0.00977989
705.373	0.0101851
705.451	0.0108118
705.530	0.0112057
705.608	0.0118154
705.686	0.0123459
705.764	0.0129475
705.842	0.0136069
705.920	0.0141900
705.998	0.0146156
706.076	0.0149493
706.155	0.0154404
706.233	0.0159352
706.311	0.0163049
706.389	0.0166630
706.467	0.0167767
706.545	0.0170383
706.623	0.0174005
706.701	0.0175967
706.780	0.0175729
706.858	0.0176294
706.936	0.0175675
707.014	0.0176523
707.092	0.0176926
707.170	0.0175809
707.248	0.0173914
707.326	0.0173409
707.405	0.0171620
707.483	0.0170512
707.561	0.0172002
707.639	0.0173271
707.717	0.0172686
707.795	0.0172810
707.873	0.0175983
707.951	0.0177456
708.030	0.0181240
708.108	0.0184515
708.186	0.0185844
708.264	0.0189052
708.342	0.0192654
708.420	0.0193368
708.498	0.0197250
708.576	0.0200838
708.655	0.0203358
708.733	0.0204865
708.811	0.0206464
708.889	0.0206194
708.967	0.0206682
709.045	0.0204239
709.123	0.0202243
709.201	0.0198373
709.280	0.0194845
709.358	0.0191387
709.436	0.0185667
709.514	0.0178470
709.592	0.0171799
709.670	0.0162980
709.748	0.0155851
709.826	0.0148239
709.905	0.0137569
709.983	0.0128930
710.061	0.0120249
710.139	0.0113100
710.217	0.0105802
710.295	0.0100159
710.373	0.00941711
710.451	0.00896347
710.530	0.00872093
710.608	0.00845657
710.686	0.00838509
710.764	0.00852692
710.842	0.00868484
710.920	0.00913269
710.998	0.00942139
711.076	0.00982788
711.155	0.0105797
711.233	0.0112852
711.311	0.0120739
711.389	0.0126394
711.467	0.0134669
711.545	0.0142957
711.623	0.0148241
711.701	0.0155210
711.780	0.0160235
711.858	0.0166117
711.936	0.0171109
712.014	0.0174338
712.092	0.0178347
712.170	0.0180289
712.248	0.0182754
712.326	0.0182581
712.405	0.0184637
712.483	0.0184808
712.561	0.0186251
712.639	0.0183988
712.717	0.0185053
712.795	0.0184431
712.873	0.0183421
712.951	0.0182061
713.030	0.0182523
713.108	0.0180869
713.186	0.0179525
713.264	0.0179366
713.342	0.0179424
713.420	0.0178629
713.498	0.0177343
713.576	0.0176910
713.655	0.0175696
713.733	0.0175576
713.811	0.0177102
713.889	0.0177598
713.967	0.0179032
714.045	0.0180753
714.123	0.0183784
714.201	0.0185497
714.280	0.0188683
714.358	0.0188985
714.436	0.0192909
714.514	0.0193476
714.592	0.0193630
714.670	0.0194392
714.748	0.0192902
714.826	0.0189161
714.905	0.0186669
714.983	0.0181403
715.061	0.0177882
715.139	0.0173184
715.217	0.0166280
715.295	0.0160423
715.373	0.0152005
715.451	0.0146882
715.530	0.0140189
715.608	0.0135645
715.686	0.0128735
715.764	0.0123872
715.842	0.0120983
715.920	0.0118018
715.998	0.0114577
716.076	0.0112583
716.155	0.0112090
716.233	0.0111120
716.311	0.0111655
716.389	0.0108773
716.467	0.0110626
716.545	0.0112412
716.623	0.0113058
716.701	0.0116295
716.780	0.0119891
716.858	0.0122340
716.936	0.0127671
717.014	0.0131985
717.092	0.0137361
717.170	0.0140602
717.248	0.0147095
717.326	0.0152352
717.405	0.0156172
717.483	0.0161536
717.561	0.0166433
717.639	0.0169449
717.717	0.0171523
717.795	0.0175133
717.873	0.0176401
717.951	0.0177579
718.030	0.0178960
718.108	0.0179503
718.186	0.0180740
718.264	0.0178299
718.342	0.0177277
718.420	0.0177164
718.498	0.0177299
718.576	0.0178179
718.655	0.0175860
718.733	0.0177277
718.811	0.0177634
718.889	0.0178488
718.967	0.0177496
719.045	0.0179680
719.123	0.0180389
719.201	0.0180131
719.280	0.0180740
719.358	0.0180118
719.436	0.0179494
719.514	0.0179315
719.592	0.0178931
719.670	0.0179574
719.748	0.0179665
719.826	0.0179020
719.905	0.0176709
719.983	0.0177033
720.061	0.0175241
720.139	0.0173085
720.217	0.0171873
720.295	0.0169418
720.373	0.0167993
720.451	0.0165736
720.530	0.0162395
720.608	0.0159118
720.686	0.0157162
720.764	0.0155167
720.842	0.0153587
720.920	0.0152519
720.998	0.0149720
721.076	0.0149514
721.155	0.0146277
721.233	0.0145248
721.311	0.0145463
721.389	0.0142708
721.467	0.0143498
721.545	0.0140854
721.623	0.0139324
721.701	0.0140424
721.780	0.0136838
721.858	0.0135593
721.936	0.0135371
722.014	0.0136008
722.092	0.0134470
722.170	0.0135786
722.248	0.0136035
722.326	0.0137299
722.405	0.0137939
722.483	0.0139347
722.561	0.0140630
722.639	0.0141822
722.717	0.0144955
722.795	0.0146847
722.873	0.0149397
722.951	0.0151511
723.030	0.0153468
723.108	0.0154916
723.186	0.0157616
723.264	0.0161053
723.342	0.0163345
723.420	0.0165521
723.498	0.0167901
723.576	0.0168237
723.655	0.0171178
723.733	0.0173885
723.811	0.0175665
723.889	0.0177104
723.967	0.0178286
724.045	0.0178345
724.123	0.0178812
724.201	0.0179318
724.280	0.0175741
724.358	0.0175780
724.436	0.0175977
724.514	0.0173900
724.592	0.0171809
724.670	0.0168529
724.748	0.0168903
724.826	0.0167491
724.905	0.0164535
724.983	0.0163179
725.061	0.0163235
725.139	0.0162025
725.217	0.0160726
725.295	0.0158562
725.373	0.0158125
725.451	0.0158107
725.530	0.0157217
725.608	0.0156259
