05/17/2022	16:46:53	Ver.	4.1	UNKNOWN
Optical Delay	639.982744	Delta X		0.078125	Sweeps	1	Scan Rate	0/0
Coordinates	Axis 1	NaN	Axis 2	NaN	Axis 3	NaN	Axis 4	NaN	Axis 5	NaN	Axis 6	0.000000
TX Power	0.000000	RX Power	0.000000

639.983	0.0157029
640.061	0.0157803
640.139	0.0156639
640.217	0.0156876
640.295	0.0155836
640.373	0.0157863
640.451	0.0157195
640.530	0.0156535
640.608	0.0156837
640.686	0.0156402
640.764	0.0157784
640.842	0.0156603
640.920	0.0157137
640.998	0.0156924
641.076	0.0157866
641.155	0.0157984
641.233	0.0156461
641.311	0.0155391
641.389	0.0157688
641.467	0.0157082
641.545	0.0156969
641.623	0.0156637
641.701	0.0158427
641.780	0.0157009
641.858	0.0157036
641.936	0.0157430
642.014	0.0155451
642.092	0.0156561
642.170	0.0155836
642.248	0.0156571
642.326	0.0157155
642.405	0.0156843
642.483	0.0157146
642.561	0.0156315
642.639	0.0156355
642.717	0.0156552
642.795	0.0157653
642.873	0.0156400
642.951	0.0156095
643.030	0.0157613
643.108	0.0155585
643.186	0.0156609
643.264	0.0156355
643.342	0.0156308
643.420	0.0155952
643.498	0.0155248
643.576	0.0156036
643.655	0.0156392
643.733	0.0156914
643.811	0.0157507
643.889	0.0156965
643.967	0.0157172
644.045	0.0156693
644.123	0.0156988
644.201	0.0157103
644.280	0.0157445
644.358	0.0156566
644.436	0.0154556
644.514	0.0156939
644.592	0.0157526
644.670	0.0157253
644.748	0.0155948
644.826	0.0157140
644.905	0.0157586
644.983	0.0156091
645.061	0.0155569
645.139	0.0154892
645.217	0.0157127
645.295	0.0155849
645.373	0.0157111
645.451	0.0156491
645.530	0.0155955
645.608	0.0157582
645.686	0.0156889
645.764	0.0156322
645.842	0.0156750
645.920	0.0156830
645.998	0.0156041
646.076	0.0155801
646.155	0.0157258
646.233	0.0157521
646.311	0.0157159
646.389	0.0156505
646.467	0.0155865
646.545	0.0156367
646.623	0.0156751
646.701	0.0157105
646.780	0.0155953
646.858	0.0155610
646.936	0.0156412
647.014	0.0156294
647.092	0.0156561
647.170	0.0156110
647.248	0.0157226
647.326	0.0157359
647.405	0.0156634
647.483	0.0157074
647.561	0.0156398
647.639	0.0155675
647.717	0.0156810
647.795	0.0156626
647.873	0.0157114
647.951	0.0157998
648.030	0.0156998
648.108	0.0157491
648.186	0.0157485
648.264	0.0156400
648.342	0.0156805
648.420	0.0156867
648.498	0.0157018
648.576	0.0157048
648.655	0.0157405
648.733	0.0156734
648.811	0.0156532
648.889	0.0156998
648.967	0.0157249
649.045	0.0157037
649.123	0.0156602
649.201	0.0156792
649.280	0.0157767
649.358	0.0157269
649.436	0.0157232
649.514	0.0157149
649.592	0.0156960
649.670	0.0156025
649.748	0.0155967
649.826	0.0157246
649.905	0.0156641
649.983	0.0156902
650.061	0.0157336
650.139	0.0157694
650.217	0.0156391
650.295	0.0155370
650.373	0.0156704
650.451	0.0157497
650.530	0.0156768
650.608	0.0157388
650.686	0.0156798
650.764	0.0157235
650.842	0.0156503
650.920	0.0157835
650.998	0.0156674
651.076	0.0156161
651.155	0.0157157
651.233	0.0156445
651.311	0.0156332
651.389	0.0155833
651.467	0.0156368
651.545	0.0157337
651.623	0.0156413
651.701	0.0156484
651.780	0.0156146
651.858	0.0156586
651.936	0.0156914
652.014	0.0156857
652.092	0.0156415
652.170	0.0155857
652.248	0.0157879
652.326	0.0156080
652.405	0.0155600
652.483	0.0157123
652.561	0.0156310
652.639	0.0155632
652.717	0.0158047
652.795	0.0156098
652.873	0.0156450
652.951	0.0155975
653.030	0.0156445
653.108	0.0156409
653.186	0.0157228
653.264	0.0155859
653.342	0.0155680
653.420	0.0156841
653.498	0.0156562
653.576	0.0156523
653.655	0.0158064
653.733	0.0156259
653.811	0.0156286
653.889	0.0155424
653.967	0.0156103
654.045	0.0154833
654.123	0.0155618
654.201	0.0156328
654.280	0.0156480
654.358	0.0156541
654.436	0.0156747
654.514	0.0155724
654.592	0.0154659
654.670	0.0156636
654.748	0.0155677
654.826	0.0157128
654.905	0.0155113
654.983	0.0155169
655.061	0.0156215
655.139	0.0156248
655.217	0.0156248
655.295	0.0156696
655.373	0.0155318
655.451	0.0156626
655.530	0.0157102
655.608	0.0156026
655.686	0.0156578
655.764	0.0155125
655.842	0.0156721
655.920	0.0157259
655.998	0.0156705
656.076	0.0155671
656.155	0.0155414
656.233	0.0155972
656.311	0.0156656
656.389	0.0155173
656.467	0.0156205
656.545	0.0157915
656.623	0.0156275
656.701	0.0155558
656.780	0.0156960
656.858	0.0155376
656.936	0.0155994
657.014	0.0157471
657.092	0.0155784
657.170	0.0156314
657.248	0.0156387
657.326	0.0157412
657.405	0.0157546
657.483	0.0157772
657.561	0.0156990
657.639	0.0156504
657.717	0.0156553
657.795	0.0156648
657.873	0.0157465
657.951	0.0155347
658.030	0.0155839
658.108	0.0155705
658.186	0.0155893
658.264	0.0157390
658.342	0.0156763
658.420	0.0155814
658.498	0.0155696
658.576	0.0156212
658.655	0.0158429
658.733	0.0155349
658.811	0.0155814
658.889	0.0157417
658.967	0.0157159
659.045	0.0158185
659.123	0.0156647
659.201	0.0156110
659.280	0.0155809
659.358	0.0157697
659.436	0.0156133
659.514	0.0156649
659.592	0.0156910
659.670	0.0156696
659.748	0.0156573
659.826	0.0156690
659.905	0.0156683
659.983	0.0155678
660.061	0.0156387
660.139	0.0157913
660.217	0.0156464
660.295	0.0156264
660.373	0.0156588
660.451	0.0156184
660.530	0.0157124
660.608	0.0157630
660.686	0.0155711
660.764	0.0156942
660.842	0.0156757
660.920	0.0157506
660.998	0.0155460
661.076	0.0157330
661.155	0.0156948
661.233	0.0156712
661.311	0.0156394
661.389	0.0156261
661.467	0.0156487
661.545	0.0157047
661.623	0.0156534
661.701	0.0156108
661.780	0.0156152
661.858	0.0156386
661.936	0.0157362
662.014	0.0155975
662.092	0.0156453
662.170	0.0155869
662.248	0.0155746
662.326	0.0155915
662.405	0.0156496
662.483	0.0155483
662.561	0.0156355
662.639	0.0156077
662.717	0.0154858
662.795	0.0156578
662.873	0.0158046
662.951	0.0157653
663.030	0.0157693
663.108	0.0156381
663.186	0.0156368
663.264	0.0156751
663.342	0.0157050
663.420	0.0156404
663.498	0.0155766
663.576	0.0156064
663.655	0.0156758
663.733	0.0156265
663.811	0.0156690
663.889	0.0156516
663.967	0.0157419
664.045	0.0156464
664.123	0.0156685
664.201	0.0155798
664.280	0.0156293
664.358	0.0157229
664.436	0.0157938
664.514	0.0156698
664.592	0.0156314
664.670	0.0156268
664.748	0.0156960
664.826	0.0157637
664.905	0.0156838
664.983	0.0157552
665.061	0.0156624
665.139	0.0157014
665.217	0.0155682
665.295	0.0157067
665.373	0.0156980
665.451	0.0156299
665.530	0.0157893
665.608	0.0156696
665.686	0.0158817
665.764	0.0157698
665.842	0.0158223
665.920	0.0156769
665.998	0.0156026
666.076	0.0156321
666.155	0.0156010
666.233	0.0155912
666.311	0.0156764
666.389	0.0157197
666.467	0.0158112
666.545	0.0157291
666.623	0.0157040
666.701	0.0156693
666.780	0.0156059
666.858	0.0157542
666.936	0.0156617
667.014	0.0156847
667.092	0.0156712
667.170	0.0156107
667.248	0.0156574
667.326	0.0156790
667.405	0.0156387
667.483	0.0157024
667.561	0.0157699
667.639	0.0155576
667.717	0.0156676
667.795	0.0156865
667.873	0.0157763
667.951	0.0157348
668.030	0.0156351
668.108	0.0156404
668.186	0.0156651
668.264	0.0156606
668.342	0.0157286
668.420	0.0160143
668.498	0.0157307
668.576	0.0155946
668.655	0.0157417
668.733	0.0156999
668.811	0.0155908
668.889	0.0156978
668.967	0.0157133
669.045	0.0157930
669.123	0.0156919
669.201	0.0157176
669.280	0.0156609
669.358	0.0156313
669.436	0.0157150
669.514	0.0156802
669.592	0.0157214
669.670	0.0157362
669.748	0.0157083
669.826	0.0157808
669.905	0.0158257
669.983	0.0156857
670.061	0.0158672
670.139	0.0158833
670.217	0.0157935
670.295	0.0159619
670.373	0.0158378
670.451	0.0158263
670.530	0.0158143
670.608	0.0157543
670.686	0.0158246
670.764	0.0157211
670.842	0.0156542
670.920	0.0156490
670.998	0.0156700
671.076	0.0155815
671.155	0.0156197
671.233	0.0155170
671.311	0.0154052
671.389	0.0155929
671.467	0.0155237
671.545	0.0155690
671.623	0.0155862
671.701	0.0156446
671.780	0.0156449
671.858	0.0155942
671.936	0.0156786
672.014	0.0157216
672.092	0.0157661
672.170	0.0157371
672.248	0.0159017
672.326	0.0158557
672.405	0.0159556
672.483	0.0160571
672.561	0.0160259
672.639	0.0159314
672.717	0.0159637
672.795	0.0158302
672.873	0.0158009
672.951	0.0157922
673.030	0.0158501
673.108	0.0158456
673.186	0.0156603
673.264	0.0157219
673.342	0.0154675
673.420	0.0156197
673.498	0.0154935
673.576	0.0154665
673.655	0.0153931
673.733	0.0153616
673.811	0.0153795
673.889	0.0154358
673.967	0.0154322
674.045	0.0154281
674.123	0.0154253
674.201	0.0155732
674.280	0.0156307
674.358	0.0156533
674.436	0.0157192
674.514	0.0159398
674.592	0.0159590
674.670	0.0159576
674.748	0.0158142
674.826	0.0160517
674.905	0.0160779
674.983	0.0162566
675.061	0.0162321
675.139	0.0160217
675.217	0.0160686
675.295	0.0158708
675.373	0.0158575
675.451	0.0157025
675.530	0.0158623
675.608	0.0155554
675.686	0.0154964
675.764	0.0154967
675.842	0.0154446
675.920	0.0152792
675.998	0.0152801
676.076	0.0152991
676.155	0.0151166
676.233	0.0151389
676.311	0.0152831
676.389	0.0152832
676.467	0.0155217
676.545	0.0154443
676.623	0.0155261
676.701	0.0155468
676.780	0.0156892
676.858	0.0159245
676.936	0.0158363
677.014	0.0157871
677.092	0.0159747
677.170	0.0159053
677.248	0.0159842
677.326	0.0161418
677.405	0.0159673
677.483	0.0159023
677.561	0.0159838
677.639	0.0160576
677.717	0.0158085
677.795	0.0159103
677.873	0.0157701
677.951	0.0157697
678.030	0.0155523
678.108	0.0156696
678.186	0.0155458
678.264	0.0154975
678.342	0.0154986
678.420	0.0152982
678.498	0.0154162
678.576	0.0153597
678.655	0.0152684
678.733	0.0153333
678.811	0.0153539
678.889	0.0152243
678.967	0.0152361
679.045	0.0153286
679.123	0.0154128
679.201	0.0156356
679.280	0.0156530
679.358	0.0158293
679.436	0.0159107
679.514	0.0159039
679.592	0.0159151
679.670	0.0159856
679.748	0.0161111
679.826	0.0161092
679.905	0.0159895
679.983	0.0159280
680.061	0.0160809
680.139	0.0159176
680.217	0.0158836
680.295	0.0158723
680.373	0.0156205
680.451	0.0157250
680.530	0.0156382
680.608	0.0156162
680.686	0.0156493
680.764	0.0155434
680.842	0.0154847
680.920	0.0155674
680.998	0.0154161
681.076	0.0153374
681.155	0.0152841
681.233	0.0152611
681.311	0.0149625
681.389	0.0151011
681.467	0.0152198
681.545	0.0153511
681.623	0.0152985
681.701	0.0153539
681.780	0.0155960
681.858	0.0156746
681.936	0.0155525
682.014	0.0157785
682.092	0.0159151
682.170	0.0160672
682.248	0.0160625
682.326	0.0160222
682.405	0.0159415
682.483	0.0160821
682.561	0.0160969
682.639	0.0161415
682.717	0.0161916
682.795	0.0162186
682.873	0.0161086
682.951	0.0161468
683.030	0.0161720
683.108	0.0161594
683.186	0.0159694
683.264	0.0159656
683.342	0.0157774
683.420	0.0157022
683.498	0.0156699
683.576	0.0155112
683.655	0.0152990
683.733	0.0153488
683.811	0.0153331
683.889	0.0153146
683.967	0.0153031
684.045	0.0154203
684.123	0.0153925
684.201	0.0154175
684.280	0.0154405
684.358	0.0154740
684.436	0.0154570
684.514	0.0155137
684.592	0.0153622
684.670	0.0154340
684.748	0.0155386
684.826	0.0156282
684.905	0.0155650
684.983	0.0154408
685.061	0.0154169
685.139	0.0154202
685.217	0.0155345
685.295	0.0156038
685.373	0.0153838
685.451	0.0152744
685.530	0.0154676
685.608	0.0154533
685.686	0.0154866
685.764	0.0156182
685.842	0.0156651
685.920	0.0157166
685.998	0.0157866
686.076	0.0158734
686.155	0.0158123
686.233	0.0159772
686.311	0.0158225
686.389	0.0159349
686.467	0.0159477
686.545	0.0158715
686.623	0.0159042
686.701	0.0159227
686.780	0.0159760
686.858	0.0161201
686.936	0.0161205
687.014	0.0160215
687.092	0.0160621
687.170	0.0161028
687.248	0.0160359
687.326	0.0159420
687.405	0.0160707
687.483	0.0160870
687.561	0.0160269
687.639	0.0160978
687.717	0.0159840
687.795	0.0159103
687.873	0.0159249
687.951	0.0159993
688.030	0.0158654
688.108	0.0157411
688.186	0.0157378
688.264	0.0157629
688.342	0.0156546
688.420	0.0156969
688.498	0.0157257
688.576	0.0155733
688.655	0.0156071
688.733	0.0155736
688.811	0.0157013
688.889	0.0156699
688.967	0.0157068
689.045	0.0157623
689.123	0.0159102
689.201	0.0158142
689.280	0.0158645
689.358	0.0158091
689.436	0.0157035
689.514	0.0158768
689.592	0.0158176
689.670	0.0157048
689.748	0.0155988
689.826	0.0154330
689.905	0.0154465
689.983	0.0153487
690.061	0.0153318
690.139	0.0150837
690.217	0.0150320
690.295	0.0149768
690.373	0.0148740
690.451	0.0148726
690.530	0.0149780
690.608	0.0149287
690.686	0.0151498
690.764	0.0151180
690.842	0.0155078
690.920	0.0156257
690.998	0.0156071
691.076	0.0160126
691.155	0.0162412
691.233	0.0162834
691.311	0.0164864
691.389	0.0167133
691.467	0.0168840
691.545	0.0170483
691.623	0.0172157
691.701	0.0172768
691.780	0.0171759
691.858	0.0174134
691.936	0.0172784
692.014	0.0172651
692.092	0.0173256
692.170	0.0171780
692.248	0.0170612
692.326	0.0170585
692.405	0.0168528
692.483	0.0166229
692.561	0.0165462
692.639	0.0164185
692.717	0.0162272
692.795	0.0159544
692.873	0.0159172
692.951	0.0157520
693.030	0.0155527
693.108	0.0153004
693.186	0.0155046
693.264	0.0155254
693.342	0.0152945
693.420	0.0151475
693.498	0.0152224
693.576	0.0150234
693.655	0.0149056
693.733	0.0148341
693.811	0.0146568
693.889	0.0143206
693.967	0.0143641
694.045	0.0141850
694.123	0.0138921
694.201	0.0137523
694.280	0.0138269
694.358	0.0137212
694.436	0.0135329
694.514	0.0135584
694.592	0.0136861
694.670	0.0135856
694.748	0.0135159
694.826	0.0137437
694.905	0.0139519
694.983	0.0139385
695.061	0.0141201
695.139	0.0142836
695.217	0.0142814
695.295	0.0144706
695.373	0.0147099
695.451	0.0147762
695.530	0.0149162
695.608	0.0150208
695.686	0.0151354
695.764	0.0154843
695.842	0.0156306
695.920	0.0158385
695.998	0.0160507
696.076	0.0165150
696.155	0.0167973
696.233	0.0173901
696.311	0.0177250
696.389	0.0179959
696.467	0.0184528
696.545	0.0190134
696.623	0.0195066
696.701	0.0198562
696.780	0.0204120
696.858	0.0205566
696.936	0.0207981
697.014	0.0209868
697.092	0.0208778
697.170	0.0208935
697.248	0.0208621
697.326	0.0203416
697.405	0.0198285
697.483	0.0191190
697.561	0.0183231
697.639	0.0175744
697.717	0.0167078
697.795	0.0158245
697.873	0.0148078
697.951	0.0140460
698.030	0.0132835
698.108	0.0127942
698.186	0.0122219
698.264	0.0118448
698.342	0.0114980
698.420	0.0113540
698.498	0.0111786
698.576	0.0112160
698.655	0.0113604
698.733	0.0114540
698.811	0.0116525
698.889	0.0118171
698.967	0.0122782
699.045	0.0125194
699.123	0.0128014
699.201	0.0131679
699.280	0.0134895
699.358	0.0140192
699.436	0.0142944
699.514	0.0147150
699.592	0.0149447
699.670	0.0152973
699.748	0.0152545
699.826	0.0154932
699.905	0.0158073
699.983	0.0160272
700.061	0.0161134
700.139	0.0160069
700.217	0.0162141
700.295	0.0162110
700.373	0.0163626
700.451	0.0163146
700.530	0.0162411
700.608	0.0162353
700.686	0.0161908
700.764	0.0161310
700.842	0.0159125
700.920	0.0157406
700.998	0.0154746
701.076	0.0153198
701.155	0.0150266
701.233	0.0151117
701.311	0.0148734
701.389	0.0147897
701.467	0.0146661
701.545	0.0150701
701.623	0.0153520
701.701	0.0155226
701.780	0.0159150
701.858	0.0162336
701.936	0.0168235
702.014	0.0173409
702.092	0.0176799
702.170	0.0183395
702.248	0.0190136
702.326	0.0194792
702.405	0.0199940
702.483	0.0204021
702.561	0.0208216
702.639	0.0207681
702.717	0.0209593
702.795	0.0208598
702.873	0.0205890
702.951	0.0203074
703.030	0.0197091
703.108	0.0190076
703.186	0.0183466
703.264	0.0175888
703.342	0.0168704
703.420	0.0159934
703.498	0.0152395
703.576	0.0144437
703.655	0.0135896
703.733	0.0128908
703.811	0.0122008
703.889	0.0115076
703.967	0.0109286
704.045	0.0104214
704.123	0.0100529
704.201	0.00983360
704.280	0.00946297
704.358	0.00936798
704.436	0.00949982
704.514	0.00957733
704.592	0.00993195
704.670	0.0104632
704.748	0.0109651
704.826	0.0115173
704.905	0.0119797
704.983	0.0126170
705.061	0.0132417
705.139	0.0139528
705.217	0.0143510
705.295	0.0149171
705.373	0.0153893
705.451	0.0158930
705.530	0.0162479
705.608	0.0164770
705.686	0.0166225
705.764	0.0168104
705.842	0.0170190
705.920	0.0171415
705.998	0.0172681
706.076	0.0171848
706.155	0.0172051
706.233	0.0172092
706.311	0.0170828
706.389	0.0171468
706.467	0.0171348
706.545	0.0169458
706.623	0.0170013
706.701	0.0167724
706.780	0.0169438
706.858	0.0170825
706.936	0.0171332
707.014	0.0172153
707.092	0.0173762
707.170	0.0176672
707.248	0.0178698
707.326	0.0180225
707.405	0.0181692
707.483	0.0184704
707.561	0.0186293
707.639	0.0188583
707.717	0.0189429
707.795	0.0190789
707.873	0.0191834
707.951	0.0192940
708.030	0.0193655
708.108	0.0191590
708.186	0.0191992
708.264	0.0191103
708.342	0.0191290
708.420	0.0191027
708.498	0.0188524
708.576	0.0186941
708.655	0.0184824
708.733	0.0180311
708.811	0.0175010
708.889	0.0170600
708.967	0.0167204
709.045	0.0160228
709.123	0.0154350
709.201	0.0146835
709.280	0.0139869
709.358	0.0131644
709.436	0.0126159
709.514	0.0119949
709.592	0.0112255
709.670	0.0106178
709.748	0.0102003
709.826	0.00967003
709.905	0.00939301
709.983	0.00907295
710.061	0.00889069
710.139	0.00879623
710.217	0.00889206
710.295	0.00900925
710.373	0.00932205
710.451	0.00972176
710.530	0.0100206
710.608	0.0106480
710.686	0.0113110
710.764	0.0120586
710.842	0.0125797
710.920	0.0134866
710.998	0.0142225
711.076	0.0149029
711.155	0.0155844
711.233	0.0163934
711.311	0.0168211
711.389	0.0174494
711.467	0.0179962
711.545	0.0183752
711.623	0.0186755
711.701	0.0191183
711.780	0.0189574
711.858	0.0190891
711.936	0.0191953
712.014	0.0190541
712.092	0.0191107
712.170	0.0190226
712.248	0.0188801
712.326	0.0187168
712.405	0.0185812
712.483	0.0184965
712.561	0.0184014
712.639	0.0181592
712.717	0.0181914
712.795	0.0181235
712.873	0.0180421
712.951	0.0180698
713.030	0.0181461
713.108	0.0182158
713.186	0.0181649
713.264	0.0181715
713.342	0.0181458
713.420	0.0182851
713.498	0.0184264
713.576	0.0184149
713.655	0.0184989
713.733	0.0183201
713.811	0.0186636
713.889	0.0185232
713.967	0.0181069
714.045	0.0179494
714.123	0.0176493
714.201	0.0175285
714.280	0.0172141
714.358	0.0169489
714.436	0.0164956
714.514	0.0160937
714.592	0.0158607
714.670	0.0154351
714.748	0.0149451
714.826	0.0144485
714.905	0.0140871
714.983	0.0138358
715.061	0.0134930
715.139	0.0131799
715.217	0.0127457
715.295	0.0123972
715.373	0.0123895
715.451	0.0119920
715.530	0.0118291
715.608	0.0116075
715.686	0.0114929
715.764	0.0114085
715.842	0.0113416
715.920	0.0113123
715.998	0.0113235
716.076	0.0112502
716.155	0.0114252
716.233	0.0115251
716.311	0.0116699
716.389	0.0119647
716.467	0.0121482
716.545	0.0124203
716.623	0.0128215
716.701	0.0131065
716.780	0.0135084
716.858	0.0138529
716.936	0.0142281
717.014	0.0147171
717.092	0.0151586
717.170	0.0157943
717.248	0.0162152
717.326	0.0165716
717.405	0.0171281
717.483	0.0175940
717.561	0.0180732
717.639	0.0184969
717.717	0.0188148
717.795	0.0190546
717.873	0.0192473
717.951	0.0195047
718.030	0.0196257
718.108	0.0196130
718.186	0.0195425
718.264	0.0194317
718.342	0.0193833
718.420	0.0192125
718.498	0.0189668
718.576	0.0186467
718.655	0.0183385
718.733	0.0180629
718.811	0.0177406
718.889	0.0174445
718.967	0.0173052
719.045	0.0170515
719.123	0.0167786
719.201	0.0165746
719.280	0.0163853
719.358	0.0163848
719.436	0.0163313
719.514	0.0161507
719.592	0.0162666
719.670	0.0163204
719.748	0.0163349
719.826	0.0163825
719.905	0.0163722
719.983	0.0163454
720.061	0.0162084
720.139	0.0160340
720.217	0.0159448
720.295	0.0157093
720.373	0.0155344
720.451	0.0151703
720.530	0.0148971
720.608	0.0146438
720.686	0.0144685
720.764	0.0142365
720.842	0.0140025
720.920	0.0138007
720.998	0.0137319
721.076	0.0135617
721.155	0.0135533
721.233	0.0136878
721.311	0.0136045
721.389	0.0136345
721.467	0.0135900
721.545	0.0136751
721.623	0.0135670
721.701	0.0137405
721.780	0.0136092
721.858	0.0135056
721.936	0.0134698
722.014	0.0134441
722.092	0.0134203
722.170	0.0133452
722.248	0.0134328
722.326	0.0135307
722.405	0.0135984
722.483	0.0137807
722.561	0.0139375
722.639	0.0141308
722.717	0.0144023
722.795	0.0146854
722.873	0.0148719
722.951	0.0152535
723.030	0.0156441
723.108	0.0159663
723.186	0.0163596
723.264	0.0165862
723.342	0.0169012
723.420	0.0171355
723.498	0.0173465
723.576	0.0174335
723.655	0.0175086
723.733	0.0177264
723.811	0.0177863
723.889	0.0178782
723.967	0.0176236
724.045	0.0177956
724.123	0.0177352
724.201	0.0175196
724.280	0.0175768
724.358	0.0174929
724.436	0.0175894
724.514	0.0172731
724.592	0.0170240
724.670	0.0168839
724.748	0.0166936
724.826	0.0165652
724.905	0.0165675
724.983	0.0162429
725.061	0.0161565
725.139	0.0162151
725.217	0.0158329
725.295	0.0158157
725.373	0.0158824
725.451	0.0158189
725.530	0.0156883
725.608	0.0156429
