05/14/2022	19:04:14	Ver.	4.1	UNKNOWN
Optical Delay	650.016352	Delta X		0.078125	Sweeps	1	Scan Rate	0/0
Coordinates	Axis 1	NaN	Axis 2	NaN	Axis 3	NaN	Axis 4	NaN	Axis 5	NaN	Axis 6	0.000000
TX Power	0.000000	RX Power	0.000000

650.016	0.0149578
650.094	0.0149609
650.173	0.0149033
650.251	0.0148855
650.329	0.0149553
650.407	0.0149757
650.485	0.0149924
650.563	0.0149232
650.641	0.0149574
650.719	0.0149966
650.798	0.0149386
650.876	0.0149391
650.954	0.0149128
651.032	0.0149203
651.110	0.0148569
651.188	0.0149886
651.266	0.0150256
651.344	0.0148774
651.423	0.0150400
651.501	0.0149145
651.579	0.0148977
651.657	0.0149129
651.735	0.0149110
651.813	0.0149511
651.891	0.0148971
651.969	0.0149341
652.048	0.0148643
652.126	0.0150350
652.204	0.0149677
652.282	0.0148650
652.360	0.0149895
652.438	0.0149528
652.516	0.0148815
652.594	0.0149934
652.673	0.0150381
652.751	0.0149505
652.829	0.0148946
652.907	0.0148769
652.985	0.0149110
653.063	0.0148963
653.141	0.0148917
653.219	0.0149387
653.298	0.0149509
653.376	0.0149816
653.454	0.0148219
653.532	0.0149338
653.610	0.0150359
653.688	0.0149776
653.766	0.0149307
653.844	0.0148793
653.923	0.0149873
654.001	0.0149641
654.079	0.0151180
654.157	0.0149864
654.235	0.0149196
654.313	0.0150936
654.391	0.0151186
654.469	0.0149828
654.548	0.0150045
654.626	0.0148521
654.704	0.0149837
654.782	0.0149767
654.860	0.0149507
654.938	0.0148945
655.016	0.0148022
655.094	0.0151870
655.173	0.0149368
655.251	0.0150220
655.329	0.0150096
655.407	0.0149159
655.485	0.0149030
655.563	0.0149244
655.641	0.0148983
655.719	0.0149129
655.798	0.0149994
655.876	0.0150224
655.954	0.0149998
656.032	0.0150089
656.110	0.0149696
656.188	0.0149620
656.266	0.0149620
656.344	0.0150930
656.423	0.0148939
656.501	0.0150100
656.579	0.0149401
656.657	0.0148833
656.735	0.0149857
656.813	0.0149216
656.891	0.0148884
656.969	0.0149052
657.048	0.0150582
657.126	0.0149910
657.204	0.0148759
657.282	0.0149837
657.360	0.0149521
657.438	0.0150610
657.516	0.0150121
657.594	0.0149123
657.673	0.0150436
657.751	0.0149818
657.829	0.0148455
657.907	0.0151333
657.985	0.0149551
658.063	0.0149599
658.141	0.0150352
658.219	0.0149427
658.298	0.0148506
658.376	0.0149828
658.454	0.0149607
658.532	0.0149478
658.610	0.0149861
658.688	0.0150114
658.766	0.0150125
658.844	0.0149625
658.923	0.0150093
659.001	0.0149701
659.079	0.0149168
659.157	0.0150526
659.235	0.0148927
659.313	0.0149274
659.391	0.0149342
659.469	0.0150127
659.548	0.0149889
659.626	0.0149579
659.704	0.0148602
659.782	0.0149900
659.860	0.0149718
659.938	0.0148445
660.016	0.0148020
660.094	0.0150024
660.173	0.0150473
660.251	0.0150777
660.329	0.0149755
660.407	0.0149003
660.485	0.0150531
660.563	0.0148669
660.641	0.0150325
660.719	0.0148459
660.798	0.0149831
660.876	0.0150031
660.954	0.0148566
661.032	0.0148459
661.110	0.0150114
661.188	0.0149506
661.266	0.0148492
661.344	0.0150446
661.423	0.0150410
661.501	0.0149529
661.579	0.0148668
661.657	0.0149988
661.735	0.0148846
661.813	0.0149606
661.891	0.0150047
661.969	0.0148699
662.048	0.0149419
662.126	0.0150373
662.204	0.0149581
662.282	0.0149749
662.360	0.0148621
662.438	0.0149152
662.516	0.0149206
662.594	0.0150292
662.673	0.0150080
662.751	0.0150085
662.829	0.0148380
662.907	0.0148985
662.985	0.0149704
663.063	0.0149393
663.141	0.0149464
663.219	0.0149074
663.298	0.0149818
663.376	0.0149976
663.454	0.0149464
663.532	0.0151525
663.610	0.0149176
663.688	0.0148566
663.766	0.0148966
663.844	0.0149318
663.923	0.0151022
664.001	0.0150209
664.079	0.0148182
664.157	0.0149128
664.235	0.0149947
664.313	0.0149250
664.391	0.0149088
664.469	0.0148793
664.548	0.0149097
664.626	0.0149197
664.704	0.0149200
664.782	0.0148676
664.860	0.0149662
664.938	0.0149916
665.016	0.0149744
665.094	0.0149678
665.173	0.0150706
665.251	0.0148463
665.329	0.0149184
665.407	0.0148557
665.485	0.0150464
665.563	0.0148701
665.641	0.0149329
665.719	0.0149766
665.798	0.0148885
665.876	0.0148587
665.954	0.0148969
666.032	0.0148280
666.110	0.0148225
666.188	0.0149493
666.266	0.0148854
666.344	0.0150707
666.423	0.0149301
666.501	0.0148830
666.579	0.0148702
666.657	0.0148388
666.735	0.0150045
666.813	0.0150731
666.891	0.0149342
666.969	0.0149908
667.048	0.0148508
667.126	0.0149379
667.204	0.0150764
667.282	0.0151093
667.360	0.0148985
667.438	0.0149734
667.516	0.0149035
667.594	0.0149110
667.673	0.0151437
667.751	0.0150400
667.829	0.0148800
667.907	0.0148207
667.985	0.0151321
668.063	0.0149969
668.141	0.0150093
668.219	0.0149580
668.298	0.0150008
668.376	0.0148939
668.454	0.0150917
668.532	0.0149344
668.610	0.0148886
668.688	0.0148793
668.766	0.0149734
668.844	0.0149990
668.923	0.0149358
669.001	0.0150142
669.079	0.0150282
669.157	0.0148376
669.235	0.0148289
669.313	0.0149374
669.391	0.0150172
669.469	0.0149413
669.548	0.0148979
669.626	0.0149395
669.704	0.0149371
669.782	0.0148957
669.860	0.0148174
669.938	0.0148837
670.016	0.0150978
670.094	0.0150241
670.173	0.0151027
670.251	0.0149504
670.329	0.0148869
670.407	0.0148119
670.485	0.0149008
670.563	0.0148153
670.641	0.0148273
670.719	0.0148911
670.798	0.0149913
670.876	0.0150055
670.954	0.0148665
671.032	0.0150101
671.110	0.0149490
671.188	0.0148977
671.266	0.0149274
671.344	0.0150575
671.423	0.0150408
671.501	0.0149705
671.579	0.0150423
671.657	0.0149046
671.735	0.0150736
671.813	0.0151125
671.891	0.0149577
671.969	0.0149368
672.048	0.0148897
672.126	0.0149614
672.204	0.0150304
672.282	0.0149896
672.360	0.0149639
672.438	0.0150026
672.516	0.0148562
672.594	0.0150514
672.673	0.0150439
672.751	0.0149959
672.829	0.0149218
672.907	0.0149908
672.985	0.0150174
673.063	0.0148381
673.141	0.0149951
673.219	0.0149982
673.298	0.0150687
673.376	0.0148601
673.454	0.0149186
673.532	0.0151376
673.610	0.0149770
673.688	0.0149358
673.766	0.0148914
673.844	0.0148907
673.923	0.0149154
674.001	0.0149279
674.079	0.0149885
674.157	0.0150430
674.235	0.0151009
674.313	0.0149893
674.391	0.0150590
674.469	0.0149294
674.548	0.0150990
674.626	0.0149458
674.704	0.0150247
674.782	0.0148553
674.860	0.0149231
674.938	0.0149348
675.016	0.0149871
675.094	0.0150350
675.173	0.0149984
675.251	0.0149483
675.329	0.0149172
675.407	0.0149877
675.485	0.0149262
675.563	0.0149130
675.641	0.0149225
675.719	0.0148998
675.798	0.0149373
675.876	0.0149150
675.954	0.0149228
676.032	0.0148646
676.110	0.0149836
676.188	0.0150074
676.266	0.0149747
676.344	0.0149468
676.423	0.0150034
676.501	0.0149514
676.579	0.0149240
676.657	0.0149177
676.735	0.0148226
676.813	0.0148876
676.891	0.0150379
676.969	0.0150649
677.048	0.0148838
677.126	0.0148199
677.204	0.0149573
677.282	0.0148679
677.360	0.0149717
677.438	0.0150422
677.516	0.0150462
677.594	0.0149104
677.673	0.0148058
677.751	0.0148152
677.829	0.0148813
677.907	0.0149026
677.985	0.0148199
678.063	0.0149622
678.141	0.0149390
678.219	0.0148188
678.298	0.0148518
678.376	0.0149577
678.454	0.0148237
678.532	0.0147945
678.610	0.0149046
678.688	0.0148920
678.766	0.0148692
678.844	0.0148261
678.923	0.0149552
679.001	0.0148782
679.079	0.0148647
679.157	0.0147471
679.235	0.0147322
679.313	0.0147663
679.391	0.0149091
679.469	0.0148491
679.548	0.0148374
679.626	0.0148734
679.704	0.0148415
679.782	0.0148326
679.860	0.0148639
679.938	0.0148463
680.016	0.0148869
680.094	0.0148134
680.173	0.0148465
680.251	0.0148748
680.329	0.0147904
680.407	0.0148062
680.485	0.0148144
680.563	0.0148815
680.641	0.0148016
680.719	0.0148700
680.798	0.0148833
680.876	0.0148231
680.954	0.0148943
681.032	0.0148203
681.110	0.0147414
681.188	0.0148611
681.266	0.0147414
681.344	0.0147935
681.423	0.0148933
681.501	0.0149243
681.579	0.0147844
681.657	0.0148852
681.735	0.0147980
681.813	0.0148620
681.891	0.0149589
681.969	0.0148878
682.048	0.0146894
682.126	0.0148755
682.204	0.0149834
682.282	0.0148473
682.360	0.0148287
682.438	0.0149902
682.516	0.0150073
682.594	0.0148885
682.673	0.0147552
682.751	0.0149247
682.829	0.0149139
682.907	0.0149151
682.985	0.0150438
683.063	0.0149401
683.141	0.0149606
683.219	0.0149332
683.298	0.0149532
683.376	0.0149647
683.454	0.0148584
683.532	0.0149388
683.610	0.0150446
683.688	0.0150427
683.766	0.0149187
683.844	0.0150655
683.923	0.0150439
684.001	0.0149870
684.079	0.0149033
684.157	0.0149905
684.235	0.0149602
684.313	0.0149241
684.391	0.0150714
684.469	0.0150384
684.548	0.0149276
684.626	0.0149934
684.704	0.0149014
684.782	0.0149068
684.860	0.0149895
684.938	0.0149226
685.016	0.0149339
685.094	0.0149596
685.173	0.0151019
685.251	0.0150381
685.329	0.0149933
685.407	0.0149956
685.485	0.0149946
685.563	0.0149747
685.641	0.0150962
685.719	0.0150179
685.798	0.0149992
685.876	0.0149416
685.954	0.0150516
686.032	0.0151534
686.110	0.0150687
686.188	0.0150697
686.266	0.0149469
686.344	0.0148080
686.423	0.0150445
686.501	0.0150294
686.579	0.0149719
686.657	0.0149899
686.735	0.0150425
686.813	0.0149318
686.891	0.0149364
686.969	0.0150336
687.048	0.0149320
687.126	0.0149420
687.204	0.0150544
687.282	0.0150907
687.360	0.0151006
687.438	0.0151447
687.516	0.0148756
687.594	0.0151657
687.673	0.0150508
687.751	0.0148518
687.829	0.0149693
687.907	0.0149821
687.985	0.0150477
688.063	0.0149959
688.141	0.0149705
688.219	0.0150967
688.298	0.0150957
688.376	0.0150212
688.454	0.0150581
688.532	0.0149786
688.610	0.0150662
688.688	0.0150452
688.766	0.0149956
688.844	0.0149305
688.923	0.0149478
689.001	0.0148750
689.079	0.0149746
689.157	0.0149099
689.235	0.0148727
689.313	0.0150017
689.391	0.0149459
689.469	0.0149819
689.548	0.0150182
689.626	0.0149966
689.704	0.0150126
689.782	0.0150277
689.860	0.0148887
689.938	0.0148801
690.016	0.0149178
690.094	0.0149042
690.173	0.0149347
690.251	0.0148872
690.329	0.0148804
690.407	0.0150066
690.485	0.0147877
690.563	0.0150378
690.641	0.0148417
690.719	0.0149437
690.798	0.0147656
690.876	0.0148917
690.954	0.0150578
691.032	0.0149948
691.110	0.0148988
691.188	0.0149678
691.266	0.0148562
691.344	0.0149003
691.423	0.0149703
691.501	0.0149154
691.579	0.0148879
691.657	0.0149888
691.735	0.0150387
691.813	0.0147887
691.891	0.0149843
691.969	0.0148620
692.048	0.0149562
692.126	0.0149181
692.204	0.0149483
692.282	0.0149585
692.360	0.0148600
692.438	0.0150047
692.516	0.0147758
692.594	0.0149362
692.673	0.0149834
692.751	0.0149200
692.829	0.0150127
692.907	0.0150360
692.985	0.0149654
693.063	0.0150316
693.141	0.0150497
693.219	0.0150494
693.298	0.0150689
693.376	0.0148070
693.454	0.0148296
693.532	0.0148439
693.610	0.0147845
693.688	0.0148800
693.766	0.0150212
693.844	0.0150724
693.923	0.0149862
694.001	0.0150730
694.079	0.0150898
694.157	0.0150832
694.235	0.0151728
694.313	0.0150974
694.391	0.0150691
694.469	0.0151463
694.548	0.0150274
694.626	0.0151474
694.704	0.0150420
694.782	0.0151068
694.860	0.0150414
694.938	0.0150234
695.016	0.0149045
695.094	0.0148793
695.173	0.0147732
695.251	0.0148744
695.329	0.0149711
695.407	0.0147974
695.485	0.0147901
695.563	0.0147810
695.641	0.0147778
695.719	0.0147723
695.798	0.0148026
695.876	0.0148330
695.954	0.0150483
696.032	0.0149840
696.110	0.0150542
696.188	0.0149489
696.266	0.0149540
696.344	0.0150468
696.423	0.0151711
696.501	0.0151421
696.579	0.0151915
696.657	0.0152049
696.735	0.0151376
696.813	0.0151282
696.891	0.0153908
696.969	0.0152184
697.048	0.0152013
697.126	0.0151371
697.204	0.0151825
697.282	0.0151601
697.360	0.0153177
697.438	0.0151331
697.516	0.0150266
697.594	0.0150062
697.673	0.0148894
697.751	0.0148293
697.829	0.0147460
697.907	0.0147655
697.985	0.0147197
698.063	0.0147263
698.141	0.0147039
698.219	0.0145904
698.298	0.0147501
698.376	0.0147515
698.454	0.0148129
698.532	0.0147134
698.610	0.0147418
698.688	0.0149645
698.766	0.0149984
698.844	0.0149853
698.923	0.0149937
699.001	0.0149593
699.079	0.0152191
699.157	0.0153460
699.235	0.0152631
699.313	0.0152296
699.391	0.0153175
699.469	0.0153214
699.548	0.0153697
699.626	0.0153262
699.704	0.0153193
699.782	0.0152492
699.860	0.0151022
699.938	0.0151618
700.016	0.0151390
700.094	0.0149862
700.173	0.0149677
700.251	0.0150271
700.329	0.0148550
700.407	0.0147487
700.485	0.0148168
700.563	0.0146725
700.641	0.0146582
700.719	0.0146941
700.798	0.0146043
700.876	0.0146815
700.954	0.0146499
701.032	0.0146812
701.110	0.0145790
701.188	0.0146398
701.266	0.0147483
701.344	0.0145467
701.423	0.0146651
701.501	0.0146204
701.579	0.0146263
701.657	0.0148373
701.735	0.0146410
701.813	0.0148730
701.891	0.0148563
701.969	0.0147780
702.048	0.0150311
702.126	0.0150599
702.204	0.0150862
702.282	0.0149937
702.360	0.0151669
702.438	0.0152007
702.516	0.0151558
702.594	0.0152660
702.673	0.0152142
702.751	0.0151361
702.829	0.0153085
702.907	0.0151562
702.985	0.0153338
703.063	0.0152151
703.141	0.0154195
703.219	0.0154340
703.298	0.0153100
703.376	0.0151829
703.454	0.0153207
703.532	0.0153952
703.610	0.0151449
703.688	0.0150625
703.766	0.0149485
703.844	0.0150061
703.923	0.0148154
704.001	0.0148227
704.079	0.0146740
704.157	0.0147075
704.235	0.0146726
704.313	0.0146411
704.391	0.0146101
704.469	0.0144891
704.548	0.0144511
704.626	0.0144674
704.704	0.0144505
704.782	0.0145145
704.860	0.0145074
704.938	0.0144404
705.016	0.0144691
705.094	0.0146720
705.173	0.0145547
705.251	0.0147523
705.329	0.0148325
705.407	0.0147044
705.485	0.0148731
705.563	0.0147797
705.641	0.0150986
705.719	0.0149271
705.798	0.0149791
705.876	0.0151156
705.954	0.0151112
706.032	0.0151838
706.110	0.0152248
706.188	0.0152110
706.266	0.0152683
706.344	0.0152514
706.423	0.0153044
706.501	0.0153362
706.579	0.0152045
706.657	0.0153255
706.735	0.0154720
706.813	0.0151884
706.891	0.0152579
706.969	0.0152732
707.048	0.0152595
707.126	0.0151943
707.204	0.0152278
707.282	0.0151366
707.360	0.0151370
707.438	0.0150196
707.516	0.0149902
707.594	0.0148121
707.673	0.0148410
707.751	0.0148387
707.829	0.0149464
707.907	0.0147661
707.985	0.0147079
708.063	0.0146716
708.141	0.0146894
708.219	0.0146367
708.298	0.0146772
708.376	0.0147329
708.454	0.0145776
708.532	0.0146066
708.610	0.0146718
708.688	0.0146323
708.766	0.0145346
708.844	0.0145817
708.923	0.0146760
709.001	0.0146821
709.079	0.0147771
709.157	0.0147968
709.235	0.0147802
709.313	0.0148900
709.391	0.0148425
709.469	0.0149734
709.548	0.0150672
709.626	0.0151022
709.704	0.0151499
709.782	0.0150546
709.860	0.0151640
709.938	0.0151367
710.016	0.0153028
710.094	0.0152579
710.173	0.0150890
710.251	0.0151830
710.329	0.0152342
710.407	0.0151101
710.485	0.0152262
710.563	0.0153334
710.641	0.0152107
710.719	0.0152042
710.798	0.0151262
710.876	0.0150780
710.954	0.0150124
711.032	0.0150899
711.110	0.0150337
711.188	0.0151380
711.266	0.0150928
711.344	0.0150121
711.423	0.0149986
711.501	0.0149724
711.579	0.0150674
711.657	0.0148399
711.735	0.0147635
711.813	0.0149326
711.891	0.0149192
711.969	0.0149541
712.048	0.0148887
712.126	0.0149128
712.204	0.0148134
712.282	0.0148141
712.360	0.0148850
712.438	0.0148173
712.516	0.0148028
712.594	0.0149618
712.673	0.0148367
712.751	0.0149141
712.829	0.0148811
712.907	0.0147849
712.985	0.0147902
713.063	0.0148154
713.141	0.0148149
713.219	0.0147296
713.298	0.0149299
713.376	0.0148396
713.454	0.0149747
713.532	0.0149480
713.610	0.0148869
713.688	0.0149786
713.766	0.0149039
713.844	0.0149543
713.923	0.0149952
714.001	0.0149754
714.079	0.0149953
714.157	0.0150063
714.235	0.0150885
714.313	0.0149996
714.391	0.0150010
714.469	0.0150282
714.548	0.0152037
714.626	0.0151137
714.704	0.0149880
714.782	0.0150548
714.860	0.0151241
714.938	0.0151472
715.016	0.0150298
715.094	0.0152422
715.173	0.0150607
715.251	0.0149551
715.329	0.0151025
715.407	0.0150632
715.485	0.0149396
715.563	0.0150158
715.641	0.0149779
715.719	0.0148769
715.798	0.0149438
715.876	0.0147679
715.954	0.0149023
716.032	0.0150832
716.110	0.0150561
716.188	0.0150050
716.266	0.0149458
716.344	0.0149676
716.423	0.0151086
716.501	0.0149837
716.579	0.0150618
716.657	0.0149694
716.735	0.0150105
716.813	0.0147470
716.891	0.0149567
716.969	0.0148803
717.048	0.0149367
717.126	0.0150032
717.204	0.0149660
717.282	0.0149550
717.360	0.0149669
717.438	0.0148287
717.516	0.0148901
717.594	0.0149581
717.673	0.0150195
717.751	0.0149736
717.829	0.0149108
717.907	0.0149309
717.985	0.0148588
718.063	0.0148452
718.141	0.0150093
718.219	0.0150079
718.298	0.0148073
718.376	0.0149698
718.454	0.0149481
718.532	0.0149889
718.610	0.0148621
718.688	0.0149623
718.766	0.0149454
718.844	0.0149046
718.923	0.0150896
719.001	0.0148432
719.079	0.0150416
719.157	0.0150192
719.235	0.0149490
719.313	0.0149817
719.391	0.0150355
719.469	0.0148425
719.548	0.0149928
719.626	0.0151195
719.704	0.0151875
719.782	0.0150649
719.860	0.0151276
719.938	0.0151503
720.016	0.0151735
720.094	0.0149984
720.173	0.0152244
720.251	0.0150327
720.329	0.0149351
720.407	0.0150653
720.485	0.0151099
720.563	0.0150587
720.641	0.0150365
720.719	0.0150357
720.798	0.0151041
720.876	0.0151115
720.954	0.0149418
721.032	0.0150878
721.110	0.0149607
721.188	0.0148970
721.266	0.0150331
721.344	0.0150833
721.423	0.0149573
721.501	0.0148760
721.579	0.0148934
721.657	0.0148649
721.735	0.0148758
721.813	0.0149612
721.891	0.0148405
721.969	0.0149532
722.048	0.0149440
722.126	0.0149294
722.204	0.0147165
722.282	0.0150053
722.360	0.0146778
722.438	0.0148507
722.516	0.0148656
722.594	0.0149764
722.673	0.0148634
722.751	0.0148141
722.829	0.0148594
722.907	0.0148740
722.985	0.0148766
723.063	0.0148922
723.141	0.0148540
723.219	0.0148515
723.298	0.0149622
723.376	0.0150798
723.454	0.0148403
723.532	0.0147207
723.610	0.0150187
723.688	0.0149720
723.766	0.0149065
723.844	0.0150578
723.923	0.0150068
724.001	0.0149921
724.079	0.0150433
724.157	0.0150667
724.235	0.0150194
724.313	0.0148919
724.391	0.0151485
724.469	0.0151015
724.548	0.0150027
724.626	0.0150009
724.704	0.0150156
724.782	0.0151713
724.860	0.0150540
724.938	0.0150876
725.016	0.0151250
725.094	0.0149625
725.173	0.0150655
725.251	0.0150604
725.329	0.0149653
725.407	0.0150014
725.485	0.0151707
725.563	0.0149349
725.641	0.0149504
725.719	0.0150215
725.798	0.0150322
725.876	0.0150770
725.954	0.0150705
726.032	0.0149516
726.110	0.0149969
726.188	0.0150134
726.266	0.0149718
726.344	0.0151037
726.423	0.0149960
726.501	0.0150117
726.579	0.0149577
726.657	0.0150345
726.735	0.0150017
726.813	0.0150011
726.891	0.0151302
726.969	0.0150408
727.048	0.0149210
727.126	0.0148928
727.204	0.0149163
727.282	0.0149112
727.360	0.0149883
727.438	0.0149602
727.516	0.0149754
727.594	0.0150471
727.673	0.0147482
727.751	0.0149531
727.829	0.0148987
727.907	0.0148803
727.985	0.0148880
728.063	0.0148666
728.141	0.0150296
728.219	0.0149637
728.298	0.0149297
728.376	0.0148147
728.454	0.0149114
728.532	0.0148963
728.610	0.0149532
728.688	0.0149697
728.766	0.0148066
728.844	0.0148041
728.923	0.0148734
729.001	0.0148869
729.079	0.0150266
729.157	0.0148839
729.235	0.0149244
729.313	0.0149103
729.391	0.0149417
729.469	0.0149824
729.548	0.0148366
729.626	0.0149226
729.704	0.0148961
729.782	0.0149495
729.860	0.0149078
729.938	0.0148678
730.016	0.0149806
730.094	0.0147297
730.173	0.0148579
730.251	0.0150630
730.329	0.0149017
730.407	0.0148548
730.485	0.0149165
730.563	0.0149464
730.641	0.0148666
730.719	0.0147739
730.798	0.0148995
730.876	0.0149811
730.954	0.0148473
731.032	0.0148899
731.110	0.0147598
731.188	0.0148868
731.266	0.0150787
731.344	0.0150935
731.423	0.0149732
731.501	0.0149151
731.579	0.0150991
731.657	0.0150054
731.735	0.0149594
731.813	0.0151917
731.891	0.0150504
731.969	0.0149241
732.048	0.0150519
732.126	0.0150819
732.204	0.0149577
732.282	0.0149789
732.360	0.0150327
732.438	0.0150607
732.516	0.0150130
732.594	0.0150225
732.673	0.0149418
732.751	0.0150163
732.829	0.0149473
732.907	0.0148624
732.985	0.0149168
733.063	0.0149717
733.141	0.0149972
733.219	0.0150045
733.298	0.0149447
733.376	0.0149572
733.454	0.0149940
733.532	0.0149036
733.610	0.0148292
733.688	0.0149011
733.766	0.0149465
733.844	0.0148773
733.923	0.0150546
734.001	0.0148866
734.079	0.0150112
734.157	0.0149441
734.235	0.0148308
734.313	0.0148370
734.391	0.0149747
734.469	0.0149303
734.548	0.0148843
734.626	0.0148356
734.704	0.0149698
734.782	0.0148951
734.860	0.0150150
734.938	0.0149895
735.016	0.0150761
735.094	0.0149625
735.173	0.0149421
735.251	0.0150254
735.329	0.0149797
735.407	0.0150706
735.485	0.0149458
735.563	0.0149323
735.641	0.0148589
735.719	0.0149685
