05/14/2022	19:35:36	Ver.	4.1	UNKNOWN
Optical Delay	650.009681	Delta X		0.078125	Sweeps	1	Scan Rate	0/0
Coordinates	Axis 1	NaN	Axis 2	NaN	Axis 3	NaN	Axis 4	NaN	Axis 5	NaN	Axis 6	0.000000
TX Power	0.000000	RX Power	0.000000

650.010	0.0140488
650.088	0.0141734
650.166	0.0142222
650.244	0.0141287
650.322	0.0141125
650.400	0.0140686
650.478	0.0140934
650.557	0.0141047
650.635	0.0140097
650.713	0.0141660
650.791	0.0142503
650.869	0.0142034
650.947	0.0140752
651.025	0.0140617
651.103	0.0141319
651.182	0.0142435
651.260	0.0141579
651.338	0.0141331
651.416	0.0141560
651.494	0.0141001
651.572	0.0141255
651.650	0.0141197
651.728	0.0141526
651.807	0.0142075
651.885	0.0141324
651.963	0.0141817
652.041	0.0138759
652.119	0.0141001
652.197	0.0141203
652.275	0.0140651
652.353	0.0141077
652.432	0.0139871
652.510	0.0140720
652.588	0.0140446
652.666	0.0140432
652.744	0.0139805
652.822	0.0140540
652.900	0.0140136
652.978	0.0140741
653.057	0.0140018
653.135	0.0141705
653.213	0.0141982
653.291	0.0140949
653.369	0.0141139
653.447	0.0141455
653.525	0.0142027
653.603	0.0141857
653.682	0.0143150
653.760	0.0142406
653.838	0.0142840
653.916	0.0142553
653.994	0.0142391
654.072	0.0142810
654.150	0.0143767
654.228	0.0142594
654.307	0.0143528
654.385	0.0143386
654.463	0.0143857
654.541	0.0143306
654.619	0.0143855
654.697	0.0142858
654.775	0.0141514
654.853	0.0143317
654.932	0.0142848
655.010	0.0143014
655.088	0.0142809
655.166	0.0141685
655.244	0.0141310
655.322	0.0141721
655.400	0.0141061
655.478	0.0140881
655.557	0.0140817
655.635	0.0141090
655.713	0.0140529
655.791	0.0140525
655.869	0.0141326
655.947	0.0141203
656.025	0.0141631
656.103	0.0142891
656.182	0.0142204
656.260	0.0143591
656.338	0.0143325
656.416	0.0141702
656.494	0.0143114
656.572	0.0143077
656.650	0.0143423
656.728	0.0141956
656.807	0.0141644
656.885	0.0141679
656.963	0.0141522
657.041	0.0140568
657.119	0.0141229
657.197	0.0140758
657.275	0.0141247
657.353	0.0140595
657.432	0.0140387
657.510	0.0142151
657.588	0.0142092
657.666	0.0141442
657.744	0.0141457
657.822	0.0142347
657.900	0.0142338
657.978	0.0141901
658.057	0.0142249
658.135	0.0142815
658.213	0.0143811
658.291	0.0141808
658.369	0.0143025
658.447	0.0143784
658.525	0.0143372
658.603	0.0142293
658.682	0.0143594
658.760	0.0142302
658.838	0.0142727
658.916	0.0143336
658.994	0.0142676
659.072	0.0142812
659.150	0.0143716
659.228	0.0142469
659.307	0.0140170
659.385	0.0142233
659.463	0.0144394
659.541	0.0143940
659.619	0.0143851
659.697	0.0144066
659.775	0.0145223
659.853	0.0145924
659.932	0.0143913
660.010	0.0145948
660.088	0.0145544
660.166	0.0145018
660.244	0.0145531
660.322	0.0143700
660.400	0.0143272
660.478	0.0141671
660.557	0.0141298
660.635	0.0140475
660.713	0.0139147
660.791	0.0138232
660.869	0.0137617
660.947	0.0135994
661.025	0.0134338
661.103	0.0135526
661.182	0.0135087
661.260	0.0134733
661.338	0.0135217
661.416	0.0136925
661.494	0.0135517
661.572	0.0136393
661.650	0.0137826
661.728	0.0137344
661.807	0.0139036
661.885	0.0139658
661.963	0.0142027
662.041	0.0143568
662.119	0.0142728
662.197	0.0144666
662.275	0.0146587
662.353	0.0147392
662.432	0.0147786
662.510	0.0149374
662.588	0.0153430
662.666	0.0153725
662.744	0.0154231
662.822	0.0154872
662.900	0.0155247
662.978	0.0155324
663.057	0.0156287
663.135	0.0154770
663.213	0.0153883
663.291	0.0153961
663.369	0.0150533
663.447	0.0149261
663.525	0.0149177
663.603	0.0147374
663.682	0.0142659
663.760	0.0141716
663.838	0.0138891
663.916	0.0138198
663.994	0.0136945
664.072	0.0134238
664.150	0.0131701
664.228	0.0131180
664.307	0.0129559
664.385	0.0126799
664.463	0.0126014
664.541	0.0125854
664.619	0.0124377
664.697	0.0124959
664.775	0.0125069
664.853	0.0126011
664.932	0.0127489
665.010	0.0128396
665.088	0.0130031
665.166	0.0132449
665.244	0.0135309
665.322	0.0137741
665.400	0.0139976
665.478	0.0144707
665.557	0.0149030
665.635	0.0150529
665.713	0.0154543
665.791	0.0160358
665.869	0.0162993
665.947	0.0165245
666.025	0.0167247
666.103	0.0171504
666.182	0.0172346
666.260	0.0173757
666.338	0.0174485
666.416	0.0175280
666.494	0.0174655
666.572	0.0172231
666.650	0.0171841
666.728	0.0169530
666.807	0.0165443
666.885	0.0160776
666.963	0.0158325
667.041	0.0153384
667.119	0.0146316
667.197	0.0142046
667.275	0.0136119
667.353	0.0129510
667.432	0.0124996
667.510	0.0120313
667.588	0.0115145
667.666	0.0110039
667.744	0.0107253
667.822	0.0105645
667.900	0.0103318
667.978	0.0100770
668.057	0.0101799
668.135	0.0100578
668.213	0.0100385
668.291	0.0100909
668.369	0.0104544
668.447	0.0107266
668.525	0.0111838
668.603	0.0116179
668.682	0.0118784
668.760	0.0125755
668.838	0.0131367
668.916	0.0139021
668.994	0.0144739
669.072	0.0151907
669.150	0.0157808
669.228	0.0162589
669.307	0.0168292
669.385	0.0173840
669.463	0.0177887
669.541	0.0181884
669.619	0.0183825
669.697	0.0187383
669.775	0.0187775
669.853	0.0188602
669.932	0.0187153
670.010	0.0185435
670.088	0.0183337
670.166	0.0180396
670.244	0.0176163
670.322	0.0172041
670.400	0.0166337
670.478	0.0160643
670.557	0.0154465
670.635	0.0148170
670.713	0.0141902
670.791	0.0136537
670.869	0.0128180
670.947	0.0122797
671.025	0.0116894
671.103	0.0110365
671.182	0.0106757
671.260	0.0103835
671.338	0.0100529
671.416	0.00992538
671.494	0.00980362
671.572	0.00961571
671.650	0.00976013
671.728	0.00993118
671.807	0.0102044
671.885	0.0104688
671.963	0.0108016
672.041	0.0111510
672.119	0.0115910
672.197	0.0120805
672.275	0.0125759
672.353	0.0130304
672.432	0.0135419
672.510	0.0140376
672.588	0.0146662
672.666	0.0151175
672.744	0.0155274
672.822	0.0160172
672.900	0.0163306
672.978	0.0165235
673.057	0.0167316
673.135	0.0168344
673.213	0.0169892
673.291	0.0171031
673.369	0.0170708
673.447	0.0170648
673.525	0.0169083
673.603	0.0166579
673.682	0.0165118
673.760	0.0163204
673.838	0.0162044
673.916	0.0160728
673.994	0.0157039
674.072	0.0154280
674.150	0.0153017
674.228	0.0151616
674.307	0.0149042
674.385	0.0146932
674.463	0.0144095
674.541	0.0142795
674.619	0.0140709
674.697	0.0140510
674.775	0.0139339
674.853	0.0137582
674.932	0.0139246
675.010	0.0138425
675.088	0.0138422
675.166	0.0139960
675.244	0.0141728
675.322	0.0141676
675.400	0.0142249
675.478	0.0141968
675.557	0.0141505
675.635	0.0140347
675.713	0.0138557
675.791	0.0137479
675.869	0.0136923
675.947	0.0132535
676.025	0.0131914
676.103	0.0129404
676.182	0.0127415
676.260	0.0125916
676.338	0.0122648
676.416	0.0121121
676.494	0.0119522
676.572	0.0118707
676.650	0.0117871
676.728	0.0118647
676.807	0.0117276
676.885	0.0119189
676.963	0.0120471
677.041	0.0120448
677.119	0.0122450
677.197	0.0126197
677.275	0.0128970
677.353	0.0130537
677.432	0.0135352
677.510	0.0138533
677.588	0.0140903
677.666	0.0145496
677.744	0.0150251
677.822	0.0153643
677.900	0.0158504
677.978	0.0161688
678.057	0.0166645
678.135	0.0171677
678.213	0.0174982
678.291	0.0177230
678.369	0.0179528
678.447	0.0180295
678.525	0.0181131
678.603	0.0182021
678.682	0.0180489
678.760	0.0179144
678.838	0.0176539
678.916	0.0174043
678.994	0.0170569
679.072	0.0167841
679.150	0.0164169
679.228	0.0161092
679.307	0.0157193
679.385	0.0151960
679.463	0.0147702
679.541	0.0143473
679.619	0.0137575
679.697	0.0135563
679.775	0.0130545
679.853	0.0124850
679.932	0.0121213
680.010	0.0117802
680.088	0.0116015
680.166	0.0112484
680.244	0.0110110
680.322	0.0106794
680.400	0.0107212
680.478	0.0106401
680.557	0.0106516
680.635	0.0106354
680.713	0.0106082
680.791	0.0108768
680.869	0.0111244
680.947	0.0112767
681.025	0.0114150
681.103	0.0118565
681.182	0.0118631
681.260	0.0122529
681.338	0.0126739
681.416	0.0127988
681.494	0.0131127
681.572	0.0135180
681.650	0.0137096
681.728	0.0140038
681.807	0.0144597
681.885	0.0147947
681.963	0.0151195
682.041	0.0152960
682.119	0.0156421
682.197	0.0159908
682.275	0.0161202
682.353	0.0164084
682.432	0.0166591
682.510	0.0167728
682.588	0.0168963
682.666	0.0169706
682.744	0.0171501
682.822	0.0170410
682.900	0.0170590
682.978	0.0169613
683.057	0.0168577
683.135	0.0167445
683.213	0.0165603
683.291	0.0160715
683.369	0.0159310
683.447	0.0155595
683.525	0.0151763
683.603	0.0148738
683.682	0.0142995
683.760	0.0138870
683.838	0.0137666
683.916	0.0133865
683.994	0.0129819
684.072	0.0128493
684.150	0.0127167
684.228	0.0125521
684.307	0.0124686
684.385	0.0122916
684.463	0.0120620
684.541	0.0120106
684.619	0.0119568
684.697	0.0119227
684.775	0.0120908
684.853	0.0121500
684.932	0.0121300
685.010	0.0124369
685.088	0.0126684
685.166	0.0126573
685.244	0.0129193
685.322	0.0131461
685.400	0.0135575
685.478	0.0139040
685.557	0.0142153
685.635	0.0145050
685.713	0.0147647
685.791	0.0151031
685.869	0.0153695
685.947	0.0155171
686.025	0.0156657
686.103	0.0158306
686.182	0.0158807
686.260	0.0158784
686.338	0.0159726
686.416	0.0158192
686.494	0.0157185
686.572	0.0155798
686.650	0.0153728
686.728	0.0152270
686.807	0.0150729
686.885	0.0149370
686.963	0.0147634
687.041	0.0144016
687.119	0.0143522
687.197	0.0143644
687.275	0.0139900
687.353	0.0141315
687.432	0.0138136
687.510	0.0136397
687.588	0.0135613
687.666	0.0136609
687.744	0.0136605
687.822	0.0133426
687.900	0.0133253
687.978	0.0133379
688.057	0.0133915
688.135	0.0134323
688.213	0.0136012
688.291	0.0135301
688.369	0.0134346
688.447	0.0136242
688.525	0.0136345
688.603	0.0136156
688.682	0.0137650
688.760	0.0137777
688.838	0.0138692
688.916	0.0139160
688.994	0.0140568
689.072	0.0141528
689.150	0.0142670
689.228	0.0142471
689.307	0.0144556
689.385	0.0144614
689.463	0.0145032
689.541	0.0146243
689.619	0.0145089
689.697	0.0146026
689.775	0.0148058
689.853	0.0147477
689.932	0.0147156
690.010	0.0148571
690.088	0.0147873
690.166	0.0148163
690.244	0.0147211
690.322	0.0148536
690.400	0.0147955
690.478	0.0150690
690.557	0.0150596
690.635	0.0148782
690.713	0.0149136
690.791	0.0149716
690.869	0.0150133
690.947	0.0149200
691.025	0.0148093
691.103	0.0147767
691.182	0.0148055
691.260	0.0146387
691.338	0.0143846
691.416	0.0145515
691.494	0.0143419
691.572	0.0141816
691.650	0.0142115
691.728	0.0141164
691.807	0.0140866
691.885	0.0138586
691.963	0.0139764
692.041	0.0137838
692.119	0.0137650
692.197	0.0136935
692.275	0.0136520
692.353	0.0134492
692.432	0.0135118
692.510	0.0133630
692.588	0.0134603
692.666	0.0135042
692.744	0.0135435
692.822	0.0133517
692.900	0.0134904
692.978	0.0136980
693.057	0.0136605
693.135	0.0136723
693.213	0.0138335
693.291	0.0140993
693.369	0.0138885
693.447	0.0140714
693.525	0.0142396
693.603	0.0141383
693.682	0.0143954
693.760	0.0144570
693.838	0.0145614
693.916	0.0145078
693.994	0.0145285
694.072	0.0145178
694.150	0.0145321
694.228	0.0144975
694.307	0.0143034
694.385	0.0141288
694.463	0.0141595
694.541	0.0140066
694.619	0.0138956
694.697	0.0138708
694.775	0.0138432
694.853	0.0138495
694.932	0.0136971
695.010	0.0137753
695.088	0.0138100
695.166	0.0137988
695.244	0.0138176
695.322	0.0138839
695.400	0.0139980
695.478	0.0141367
695.557	0.0142110
695.635	0.0142128
695.713	0.0143474
695.791	0.0144602
695.869	0.0145216
695.947	0.0146240
696.025	0.0145258
696.103	0.0146078
696.182	0.0146923
696.260	0.0145686
696.338	0.0143457
696.416	0.0145914
696.494	0.0144531
696.572	0.0144319
696.650	0.0144408
696.728	0.0144458
696.807	0.0143839
696.885	0.0144191
696.963	0.0145511
697.041	0.0145255
697.119	0.0146276
697.197	0.0146538
697.275	0.0147096
697.353	0.0147628
697.432	0.0148750
697.510	0.0150050
697.588	0.0149587
697.666	0.0151163
697.744	0.0152415
697.822	0.0152377
697.900	0.0153939
697.978	0.0155939
698.057	0.0153924
698.135	0.0154586
698.213	0.0156290
698.291	0.0154031
698.369	0.0153380
698.447	0.0153096
698.525	0.0152404
698.603	0.0151041
698.682	0.0147256
698.760	0.0145600
698.838	0.0144750
698.916	0.0142226
698.994	0.0140046
699.072	0.0138844
699.150	0.0136234
699.228	0.0134809
699.307	0.0131893
699.385	0.0129598
699.463	0.0128213
699.541	0.0125469
699.619	0.0123345
699.697	0.0122250
699.775	0.0119833
699.853	0.0117290
699.932	0.0114433
700.010	0.0114095
700.088	0.0113934
700.166	0.0112115
700.244	0.0112556
700.322	0.0113200
700.400	0.0114800
700.478	0.0115716
700.557	0.0118378
700.635	0.0120816
700.713	0.0125024
700.791	0.0127001
700.869	0.0131106
700.947	0.0134530
701.025	0.0138239
701.103	0.0142813
701.182	0.0147169
701.260	0.0150966
701.338	0.0155299
701.416	0.0159026
701.494	0.0162257
701.572	0.0166804
701.650	0.0170113
701.728	0.0172638
701.807	0.0176472
701.885	0.0178752
701.963	0.0181389
702.041	0.0182939
702.119	0.0184196
702.197	0.0185268
702.275	0.0182694
702.353	0.0182394
702.432	0.0180427
702.510	0.0178647
702.588	0.0174744
702.666	0.0172606
702.744	0.0169695
702.822	0.0165251
702.900	0.0160862
702.978	0.0156190
703.057	0.0150861
703.135	0.0147132
703.213	0.0142374
703.291	0.0136006
703.369	0.0132490
703.447	0.0126517
703.525	0.0122755
703.603	0.0120041
703.682	0.0115710
703.760	0.0114101
703.838	0.0111336
703.916	0.0109326
703.994	0.0107784
704.072	0.0107279
704.150	0.0106551
704.228	0.0106473
704.307	0.0106333
704.385	0.0108438
704.463	0.0109230
704.541	0.0109914
704.619	0.0112511
704.697	0.0115356
704.775	0.0118376
704.853	0.0121221
704.932	0.0123423
705.010	0.0128766
705.088	0.0130853
705.166	0.0132457
705.244	0.0136041
705.322	0.0140910
705.400	0.0144247
705.478	0.0147730
705.557	0.0149059
705.635	0.0150760
705.713	0.0153414
705.791	0.0156927
705.869	0.0157654
705.947	0.0158919
706.025	0.0159365
706.103	0.0158076
706.182	0.0158795
706.260	0.0159222
706.338	0.0158762
706.416	0.0157830
706.494	0.0156891
706.572	0.0154836
706.650	0.0153796
706.728	0.0152637
706.807	0.0150868
706.885	0.0149995
706.963	0.0148170
707.041	0.0146469
707.119	0.0146018
707.197	0.0144466
707.275	0.0142313
707.353	0.0143551
707.432	0.0140711
707.510	0.0142612
707.588	0.0140409
707.666	0.0139893
707.744	0.0140121
707.822	0.0139316
707.900	0.0140750
707.978	0.0142536
708.057	0.0142093
708.135	0.0142496
708.213	0.0143970
708.291	0.0145187
708.369	0.0143926
708.447	0.0145377
708.525	0.0144112
708.603	0.0145746
708.682	0.0146183
708.760	0.0145809
708.838	0.0145601
708.916	0.0145579
708.994	0.0145070
709.072	0.0144473
709.150	0.0143382
709.228	0.0143362
709.307	0.0142913
709.385	0.0142365
709.463	0.0141927
709.541	0.0141045
709.619	0.0139612
709.697	0.0141319
709.775	0.0140826
709.853	0.0139843
709.932	0.0140285
710.010	0.0139258
710.088	0.0136253
710.166	0.0137600
710.244	0.0137806
710.322	0.0136239
710.400	0.0135579
710.478	0.0133970
710.557	0.0132739
710.635	0.0132597
710.713	0.0132602
710.791	0.0132515
710.869	0.0130446
710.947	0.0132706
711.025	0.0131438
711.103	0.0130783
711.182	0.0130501
711.260	0.0132578
711.338	0.0133192
711.416	0.0132531
711.494	0.0134604
711.572	0.0135972
711.650	0.0139507
711.728	0.0137534
711.807	0.0138639
711.885	0.0141331
711.963	0.0141235
712.041	0.0143781
712.119	0.0141985
712.197	0.0141038
712.275	0.0142194
712.353	0.0142702
712.432	0.0141398
712.510	0.0141090
712.588	0.0141778
712.666	0.0141911
712.744	0.0139156
712.822	0.0137744
712.900	0.0139009
712.978	0.0138973
713.057	0.0136903
713.135	0.0136858
713.213	0.0137211
713.291	0.0137830
713.369	0.0136642
713.447	0.0137650
713.525	0.0138435
713.603	0.0140112
713.682	0.0141121
713.760	0.0141915
713.838	0.0144630
713.916	0.0145660
713.994	0.0146803
714.072	0.0148817
714.150	0.0151531
714.228	0.0153084
714.307	0.0154575
714.385	0.0156203
714.463	0.0155574
714.541	0.0156487
714.619	0.0156943
714.697	0.0157649
714.775	0.0157030
714.853	0.0157002
714.932	0.0154795
715.010	0.0154786
715.088	0.0153510
715.166	0.0151142
715.244	0.0150872
715.322	0.0150983
715.400	0.0148033
715.478	0.0145900
715.557	0.0145489
715.635	0.0145468
715.713	0.0143217
715.791	0.0141131
715.869	0.0140312
715.947	0.0138808
716.025	0.0137260
716.103	0.0135763
716.182	0.0133453
716.260	0.0131706
716.338	0.0131103
716.416	0.0129585
716.494	0.0127729
716.572	0.0126885
716.650	0.0124986
716.728	0.0126585
716.807	0.0125298
716.885	0.0123462
716.963	0.0123530
717.041	0.0123801
717.119	0.0124818
717.197	0.0124897
717.275	0.0125264
717.353	0.0126662
717.432	0.0126790
717.510	0.0127451
717.588	0.0127605
717.666	0.0131663
717.744	0.0130693
717.822	0.0131920
717.900	0.0134792
717.978	0.0136707
718.057	0.0138475
718.135	0.0138424
718.213	0.0139893
718.291	0.0140880
718.369	0.0142988
718.447	0.0144755
718.525	0.0145596
718.603	0.0146510
718.682	0.0148041
718.760	0.0147830
718.838	0.0149264
718.916	0.0150013
718.994	0.0150382
719.072	0.0150703
719.150	0.0151480
719.228	0.0152356
719.307	0.0152414
719.385	0.0153008
719.463	0.0154720
719.541	0.0153778
719.619	0.0154230
719.697	0.0154734
719.775	0.0153326
719.853	0.0156568
719.932	0.0156078
720.010	0.0156460
720.088	0.0157240
720.166	0.0157720
720.244	0.0156175
720.322	0.0157671
720.400	0.0156829
720.478	0.0155826
720.557	0.0155029
720.635	0.0154570
720.713	0.0151543
720.791	0.0150919
720.869	0.0149508
720.947	0.0147648
721.025	0.0148159
721.103	0.0146429
721.182	0.0144358
721.260	0.0144202
721.338	0.0142494
721.416	0.0141926
721.494	0.0140928
721.572	0.0141141
721.650	0.0139233
721.728	0.0139244
721.807	0.0138495
721.885	0.0137071
721.963	0.0137991
722.041	0.0135223
722.119	0.0136226
722.197	0.0136797
722.275	0.0136897
722.353	0.0135061
722.432	0.0136523
722.510	0.0134883
722.588	0.0134856
722.666	0.0135226
722.744	0.0135648
722.822	0.0134668
722.900	0.0135047
722.978	0.0134589
723.057	0.0133253
723.135	0.0134721
723.213	0.0135714
723.291	0.0132686
723.369	0.0133379
723.447	0.0132606
723.525	0.0133209
723.603	0.0133820
723.682	0.0133022
723.760	0.0133440
723.838	0.0133895
723.916	0.0134888
723.994	0.0135964
724.072	0.0137849
724.150	0.0137576
724.228	0.0140283
724.307	0.0142293
724.385	0.0141549
724.463	0.0143380
724.541	0.0145660
724.619	0.0145032
724.697	0.0147550
724.775	0.0147863
724.853	0.0147591
724.932	0.0148866
725.010	0.0148766
725.088	0.0150033
725.166	0.0149889
725.244	0.0148786
725.322	0.0150006
725.400	0.0148171
725.478	0.0149104
725.557	0.0148882
725.635	0.0147817
725.713	0.0146480
725.791	0.0146333
725.869	0.0146035
725.947	0.0144303
726.025	0.0145748
726.103	0.0146885
726.182	0.0145732
726.260	0.0143960
726.338	0.0145850
726.416	0.0144666
726.494	0.0145370
726.572	0.0144935
726.650	0.0145715
726.728	0.0145586
726.807	0.0144296
726.885	0.0144390
726.963	0.0143818
727.041	0.0144006
727.119	0.0143716
727.197	0.0144122
727.275	0.0141863
727.353	0.0142149
727.432	0.0141564
727.510	0.0141741
727.588	0.0139293
727.666	0.0140106
727.744	0.0138795
727.822	0.0139109
727.900	0.0139600
727.978	0.0139117
728.057	0.0137966
728.135	0.0137498
728.213	0.0137212
728.291	0.0139262
728.369	0.0137402
728.447	0.0138027
728.525	0.0138905
728.603	0.0138025
728.682	0.0139735
728.760	0.0138795
728.838	0.0138270
728.916	0.0139104
728.994	0.0139471
729.072	0.0140369
729.150	0.0139443
729.228	0.0140021
729.307	0.0139532
729.385	0.0140915
729.463	0.0140337
729.541	0.0139664
729.619	0.0139371
729.697	0.0138915
729.775	0.0138667
729.853	0.0139350
729.932	0.0138963
730.010	0.0138726
730.088	0.0139017
730.166	0.0140457
730.244	0.0138849
730.322	0.0137747
730.400	0.0138788
730.478	0.0139364
730.557	0.0139053
730.635	0.0139246
730.713	0.0139170
730.791	0.0139895
730.869	0.0139882
730.947	0.0140090
731.025	0.0139874
731.103	0.0139931
731.182	0.0139422
731.260	0.0141596
731.338	0.0141798
731.416	0.0142077
731.494	0.0142021
731.572	0.0142970
731.650	0.0142907
731.728	0.0142213
731.807	0.0143955
731.885	0.0144209
731.963	0.0144452
732.041	0.0146072
732.119	0.0145423
732.197	0.0147025
732.275	0.0146476
732.353	0.0145525
732.432	0.0147408
732.510	0.0148057
732.588	0.0146430
732.666	0.0146647
732.744	0.0147681
732.822	0.0148092
732.900	0.0147122
732.978	0.0147680
733.057	0.0147168
733.135	0.0146938
733.213	0.0147043
733.291	0.0145670
733.369	0.0146860
733.447	0.0145695
733.525	0.0145054
733.603	0.0144024
733.682	0.0143262
733.760	0.0142958
733.838	0.0140769
733.916	0.0139587
733.994	0.0138520
734.072	0.0138177
734.150	0.0136463
734.228	0.0136021
734.307	0.0135537
734.385	0.0135579
734.463	0.0133038
734.541	0.0133858
734.619	0.0134705
734.697	0.0133266
734.775	0.0132983
734.853	0.0133147
734.932	0.0134631
735.010	0.0136107
735.088	0.0137082
735.166	0.0137508
735.244	0.0137757
735.322	0.0137775
735.400	0.0140901
735.478	0.0139654
735.557	0.0141734
735.635	0.0142749
735.713	0.0143549
