05/14/2022	19:36:16	Ver.	4.1	UNKNOWN
Optical Delay	650.009681	Delta X		0.078125	Sweeps	1	Scan Rate	0/0
Coordinates	Axis 1	NaN	Axis 2	NaN	Axis 3	NaN	Axis 4	NaN	Axis 5	NaN	Axis 6	0.000000
TX Power	0.000000	RX Power	0.000000

650.010	0.0143376
650.088	0.0143188
650.166	0.0141873
650.244	0.0143059
650.322	0.0142582
650.400	0.0143427
650.478	0.0144425
650.557	0.0143443
650.635	0.0143394
650.713	0.0143775
650.791	0.0143781
650.869	0.0142767
650.947	0.0144278
651.025	0.0144395
651.103	0.0143729
651.182	0.0144743
651.260	0.0144456
651.338	0.0144382
651.416	0.0145084
651.494	0.0146004
651.572	0.0144182
651.650	0.0143704
651.728	0.0144259
651.807	0.0143292
651.885	0.0143287
651.963	0.0145032
652.041	0.0143181
652.119	0.0143828
652.197	0.0143081
652.275	0.0143988
652.353	0.0144400
652.432	0.0143247
652.510	0.0143473
652.588	0.0144088
652.666	0.0143409
652.744	0.0144450
652.822	0.0144168
652.900	0.0144205
652.978	0.0144273
653.057	0.0144559
653.135	0.0146019
653.213	0.0144517
653.291	0.0143858
653.369	0.0144804
653.447	0.0145670
653.525	0.0144859
653.603	0.0144827
653.682	0.0145733
653.760	0.0146452
653.838	0.0145364
653.916	0.0145854
653.994	0.0146361
654.072	0.0145556
654.150	0.0145685
654.228	0.0144444
654.307	0.0143772
654.385	0.0144746
654.463	0.0146105
654.541	0.0144527
654.619	0.0144991
654.697	0.0145099
654.775	0.0144485
654.853	0.0144981
654.932	0.0145159
655.010	0.0144559
655.088	0.0143998
655.166	0.0143793
655.244	0.0144071
655.322	0.0143977
655.400	0.0143508
655.478	0.0145503
655.557	0.0145154
655.635	0.0143873
655.713	0.0144959
655.791	0.0143736
655.869	0.0144762
655.947	0.0143978
656.025	0.0145158
656.103	0.0145836
656.182	0.0146440
656.260	0.0146655
656.338	0.0145380
656.416	0.0146662
656.494	0.0146214
656.572	0.0146892
656.650	0.0146304
656.728	0.0146688
656.807	0.0145963
656.885	0.0145515
656.963	0.0145345
657.041	0.0143793
657.119	0.0144435
657.197	0.0143580
657.275	0.0141898
657.353	0.0142625
657.432	0.0142822
657.510	0.0142015
657.588	0.0142739
657.666	0.0143642
657.744	0.0142925
657.822	0.0143835
657.900	0.0143423
657.978	0.0143561
658.057	0.0142921
658.135	0.0143415
658.213	0.0142036
658.291	0.0143920
658.369	0.0143320
658.447	0.0144361
658.525	0.0144469
658.603	0.0144525
658.682	0.0144502
658.760	0.0143375
658.838	0.0143848
658.916	0.0143404
658.994	0.0143645
659.072	0.0144304
659.150	0.0144154
659.228	0.0143095
659.307	0.0142747
659.385	0.0143872
659.463	0.0144463
659.541	0.0144218
659.619	0.0144941
659.697	0.0143848
659.775	0.0144122
659.853	0.0144262
659.932	0.0145529
660.010	0.0145361
660.088	0.0146264
660.166	0.0144757
660.244	0.0144736
660.322	0.0145153
660.400	0.0144689
660.478	0.0144833
660.557	0.0144833
660.635	0.0143839
660.713	0.0144650
660.791	0.0142906
660.869	0.0142081
660.947	0.0142630
661.025	0.0141579
661.103	0.0138873
661.182	0.0139455
661.260	0.0140018
661.338	0.0139320
661.416	0.0140034
661.494	0.0138419
661.572	0.0138098
661.650	0.0138995
661.728	0.0139703
661.807	0.0138557
661.885	0.0139597
661.963	0.0139608
662.041	0.0142329
662.119	0.0142580
662.197	0.0142822
662.275	0.0143961
662.353	0.0145374
662.432	0.0146571
662.510	0.0147279
662.588	0.0148997
662.666	0.0148351
662.744	0.0151215
662.822	0.0152271
662.900	0.0150423
662.978	0.0152809
663.057	0.0152635
663.135	0.0152772
663.213	0.0152753
663.291	0.0152236
663.369	0.0153151
663.447	0.0151962
663.525	0.0150882
663.603	0.0147966
663.682	0.0149529
663.760	0.0147900
663.838	0.0144936
663.916	0.0143031
663.994	0.0141531
664.072	0.0138795
664.150	0.0137817
664.228	0.0135651
664.307	0.0133974
664.385	0.0132957
664.463	0.0131368
664.541	0.0130494
664.619	0.0130999
664.697	0.0130199
664.775	0.0128430
664.853	0.0129855
664.932	0.0130118
665.010	0.0130022
665.088	0.0129692
665.166	0.0132448
665.244	0.0133296
665.322	0.0134174
665.400	0.0136506
665.478	0.0140154
665.557	0.0142065
665.635	0.0143646
665.713	0.0145724
665.791	0.0149157
665.869	0.0152604
665.947	0.0156174
666.025	0.0157164
666.103	0.0159844
666.182	0.0161764
666.260	0.0164079
666.338	0.0166852
666.416	0.0168050
666.494	0.0168834
666.572	0.0169656
666.650	0.0169569
666.728	0.0170120
666.807	0.0169273
666.885	0.0167760
666.963	0.0166346
667.041	0.0163829
667.119	0.0160453
667.197	0.0156767
667.275	0.0151912
667.353	0.0148201
667.432	0.0143530
667.510	0.0139507
667.588	0.0133825
667.666	0.0129714
667.744	0.0125355
667.822	0.0121342
667.900	0.0117355
667.978	0.0113232
668.057	0.0112345
668.135	0.0109795
668.213	0.0109242
668.291	0.0108449
668.369	0.0108576
668.447	0.0109245
668.525	0.0110940
668.603	0.0112553
668.682	0.0116033
668.760	0.0118088
668.838	0.0121498
668.916	0.0124249
668.994	0.0129410
669.072	0.0134739
669.150	0.0141055
669.228	0.0145349
669.307	0.0150998
669.385	0.0156879
669.463	0.0162959
669.541	0.0166789
669.619	0.0171490
669.697	0.0175826
669.775	0.0179403
669.853	0.0182544
669.932	0.0184835
670.010	0.0186205
670.088	0.0186584
670.166	0.0185459
670.244	0.0184333
670.322	0.0183762
670.400	0.0180920
670.478	0.0177051
670.557	0.0174039
670.635	0.0170508
670.713	0.0165809
670.791	0.0159822
670.869	0.0153744
670.947	0.0148381
671.025	0.0143164
671.103	0.0137705
671.182	0.0130809
671.260	0.0124266
671.338	0.0120058
671.416	0.0114228
671.494	0.0109555
671.572	0.0106348
671.650	0.0102277
671.728	0.00997948
671.807	0.00986885
671.885	0.00987251
671.963	0.00985985
672.041	0.00983101
672.119	0.0100467
672.197	0.0102444
672.275	0.0106090
672.353	0.0110724
672.432	0.0114852
672.510	0.0117943
672.588	0.0122504
672.666	0.0127087
672.744	0.0135178
672.822	0.0140557
672.900	0.0145837
672.978	0.0151884
673.057	0.0156018
673.135	0.0160783
673.213	0.0165456
673.291	0.0169824
673.369	0.0170746
673.447	0.0174297
673.525	0.0177699
673.603	0.0177674
673.682	0.0178271
673.760	0.0177972
673.838	0.0176570
673.916	0.0176162
673.994	0.0175826
674.072	0.0173419
674.150	0.0170682
674.228	0.0167866
674.307	0.0167346
674.385	0.0163364
674.463	0.0159512
674.541	0.0156958
674.619	0.0153654
674.697	0.0149382
674.775	0.0144769
674.853	0.0142503
674.932	0.0140386
675.010	0.0136130
675.088	0.0133373
675.166	0.0133544
675.244	0.0131791
675.322	0.0130741
675.400	0.0130323
675.478	0.0130373
675.557	0.0129468
675.635	0.0129427
675.713	0.0129478
675.791	0.0130124
675.869	0.0130428
675.947	0.0130590
676.025	0.0130312
676.103	0.0131087
676.182	0.0130514
676.260	0.0129395
676.338	0.0129304
676.416	0.0128890
676.494	0.0129301
676.572	0.0129375
676.650	0.0129468
676.728	0.0128419
676.807	0.0127793
676.885	0.0126966
676.963	0.0129364
677.041	0.0127926
677.119	0.0128233
677.197	0.0128937
677.275	0.0131203
677.353	0.0132134
677.432	0.0132762
677.510	0.0132646
677.588	0.0135660
677.666	0.0139093
677.744	0.0140607
677.822	0.0143546
677.900	0.0147290
677.978	0.0150421
678.057	0.0154002
678.135	0.0156941
678.213	0.0158270
678.291	0.0162878
678.369	0.0164732
678.447	0.0166660
678.525	0.0170105
678.603	0.0172633
678.682	0.0173569
678.760	0.0174490
678.838	0.0174651
678.916	0.0176448
678.994	0.0176276
679.072	0.0175932
679.150	0.0174637
679.228	0.0173255
679.307	0.0169774
679.385	0.0166570
679.463	0.0162688
679.541	0.0161053
679.619	0.0156374
679.697	0.0152578
679.775	0.0147381
679.853	0.0144106
679.932	0.0140495
680.010	0.0136186
680.088	0.0133466
680.166	0.0129836
680.244	0.0126223
680.322	0.0123647
680.400	0.0122415
680.478	0.0119756
680.557	0.0116338
680.635	0.0115797
680.713	0.0114120
680.791	0.0115347
680.869	0.0114309
680.947	0.0114143
681.025	0.0114810
681.103	0.0117214
681.182	0.0118380
681.260	0.0119563
681.338	0.0120856
681.416	0.0123649
681.494	0.0126562
681.572	0.0128547
681.650	0.0131938
681.728	0.0134377
681.807	0.0138100
681.885	0.0140106
681.963	0.0142088
682.041	0.0145206
682.119	0.0146861
682.197	0.0150378
682.275	0.0150808
682.353	0.0152075
682.432	0.0154210
682.510	0.0154887
682.588	0.0155235
682.666	0.0157824
682.744	0.0159055
682.822	0.0158909
682.900	0.0160159
682.978	0.0159492
683.057	0.0162054
683.135	0.0161678
683.213	0.0160183
683.291	0.0161983
683.369	0.0162730
683.447	0.0160873
683.525	0.0161310
683.603	0.0161984
683.682	0.0161562
683.760	0.0160761
683.838	0.0159924
683.916	0.0159119
683.994	0.0156297
684.072	0.0155817
684.150	0.0154187
684.228	0.0151966
684.307	0.0149319
684.385	0.0148029
684.463	0.0146738
684.541	0.0144984
684.619	0.0142040
684.697	0.0139540
684.775	0.0137879
684.853	0.0136567
684.932	0.0135091
685.010	0.0131871
685.088	0.0130682
685.166	0.0128951
685.244	0.0128757
685.322	0.0127505
685.400	0.0126386
685.478	0.0126916
685.557	0.0125008
685.635	0.0126069
685.713	0.0124436
685.791	0.0125358
685.869	0.0125504
685.947	0.0127159
686.025	0.0129197
686.103	0.0131197
686.182	0.0131589
686.260	0.0133524
686.338	0.0136311
686.416	0.0139254
686.494	0.0141222
686.572	0.0142976
686.650	0.0144300
686.728	0.0146541
686.807	0.0147858
686.885	0.0149065
686.963	0.0150227
687.041	0.0152356
687.119	0.0152358
687.197	0.0154225
687.275	0.0155135
687.353	0.0156071
687.432	0.0158733
687.510	0.0157878
687.588	0.0158403
687.666	0.0160845
687.744	0.0160030
687.822	0.0159987
687.900	0.0159215
687.978	0.0159683
688.057	0.0157928
688.135	0.0155669
688.213	0.0155990
688.291	0.0154671
688.369	0.0151797
688.447	0.0148555
688.525	0.0147437
688.603	0.0144776
688.682	0.0145267
688.760	0.0140500
688.838	0.0140751
688.916	0.0139169
688.994	0.0136379
689.072	0.0135188
689.150	0.0134869
689.228	0.0132865
689.307	0.0132944
689.385	0.0134690
689.463	0.0133592
689.541	0.0133426
689.619	0.0134279
689.697	0.0134752
689.775	0.0135597
689.853	0.0137675
689.932	0.0137145
690.010	0.0137384
690.088	0.0141178
690.166	0.0142397
690.244	0.0144388
690.322	0.0145938
690.400	0.0145568
690.478	0.0147771
690.557	0.0151953
690.635	0.0152519
690.713	0.0152980
690.791	0.0154193
690.869	0.0155916
690.947	0.0156406
691.025	0.0155865
691.103	0.0155464
691.182	0.0156064
691.260	0.0154028
691.338	0.0152386
691.416	0.0152316
691.494	0.0150529
691.572	0.0150027
691.650	0.0149505
691.728	0.0145624
691.807	0.0144264
691.885	0.0141540
691.963	0.0140636
692.041	0.0139301
692.119	0.0137553
692.197	0.0136456
692.275	0.0136575
692.353	0.0135719
692.432	0.0133864
692.510	0.0134777
692.588	0.0134472
692.666	0.0135555
692.744	0.0135300
692.822	0.0135009
692.900	0.0135130
692.978	0.0136788
693.057	0.0137378
693.135	0.0139262
693.213	0.0140421
693.291	0.0141608
693.369	0.0144167
693.447	0.0143773
693.525	0.0145045
693.603	0.0144872
693.682	0.0146462
693.760	0.0147569
693.838	0.0147599
693.916	0.0147965
693.994	0.0147916
694.072	0.0148885
694.150	0.0147898
694.228	0.0147411
694.307	0.0147594
694.385	0.0147216
694.463	0.0146801
694.541	0.0145221
694.619	0.0145306
694.697	0.0144117
694.775	0.0144040
694.853	0.0143574
694.932	0.0142406
695.010	0.0141920
695.088	0.0142229
695.166	0.0139924
695.244	0.0141197
695.322	0.0141520
695.400	0.0141539
695.478	0.0140471
695.557	0.0141554
695.635	0.0140733
695.713	0.0142577
695.791	0.0142658
695.869	0.0143763
695.947	0.0142443
696.025	0.0142247
696.103	0.0142457
696.182	0.0144853
696.260	0.0144872
696.338	0.0143414
696.416	0.0144815
696.494	0.0145018
696.572	0.0144949
696.650	0.0144425
696.728	0.0145489
696.807	0.0146345
696.885	0.0145612
696.963	0.0146614
697.041	0.0146921
697.119	0.0146405
697.197	0.0146253
697.275	0.0146463
697.353	0.0145608
697.432	0.0147236
697.510	0.0144474
697.588	0.0144933
697.666	0.0144884
697.744	0.0145348
697.822	0.0144640
697.900	0.0144173
697.978	0.0144875
698.057	0.0144516
698.135	0.0143682
698.213	0.0143315
698.291	0.0143205
698.369	0.0142308
698.447	0.0141052
698.525	0.0143059
698.603	0.0142741
698.682	0.0143668
698.760	0.0143624
698.838	0.0143282
698.916	0.0145104
698.994	0.0145107
699.072	0.0145078
699.150	0.0145597
699.228	0.0146513
699.307	0.0146956
699.385	0.0146194
699.463	0.0148480
699.541	0.0147873
699.619	0.0147733
699.697	0.0148504
699.775	0.0148116
699.853	0.0147492
699.932	0.0145847
700.010	0.0145480
700.088	0.0144266
700.166	0.0142607
700.244	0.0141924
700.322	0.0140446
700.400	0.0137305
700.478	0.0136665
700.557	0.0135229
700.635	0.0134256
700.713	0.0131724
700.791	0.0130571
700.869	0.0129867
700.947	0.0126653
701.025	0.0127248
701.103	0.0126846
701.182	0.0127111
701.260	0.0127033
701.338	0.0127055
701.416	0.0127877
701.494	0.0128640
701.572	0.0130971
701.650	0.0132684
701.728	0.0133743
701.807	0.0138770
701.885	0.0138879
701.963	0.0139703
702.041	0.0143690
702.119	0.0147062
702.197	0.0149415
702.275	0.0151933
702.353	0.0154610
702.432	0.0156447
702.510	0.0159600
702.588	0.0161921
702.666	0.0164092
702.744	0.0166245
702.822	0.0165422
702.900	0.0167090
702.978	0.0168485
703.057	0.0168875
703.135	0.0170144
703.213	0.0169040
703.291	0.0169053
703.369	0.0166438
703.447	0.0165173
703.525	0.0165365
703.603	0.0162956
703.682	0.0159193
703.760	0.0158157
703.838	0.0154758
703.916	0.0151063
703.994	0.0148831
704.072	0.0145429
704.150	0.0142390
704.228	0.0139629
704.307	0.0135075
704.385	0.0131107
704.463	0.0128044
704.541	0.0125758
704.619	0.0123283
704.697	0.0120096
704.775	0.0117869
704.853	0.0118752
704.932	0.0115577
705.010	0.0113377
705.088	0.0112464
705.166	0.0112390
705.244	0.0113055
705.322	0.0115600
705.400	0.0115505
705.478	0.0116763
705.557	0.0118165
705.635	0.0121144
705.713	0.0122330
705.791	0.0124738
705.869	0.0127480
705.947	0.0130226
706.025	0.0132261
706.103	0.0135760
706.182	0.0138005
706.260	0.0141022
706.338	0.0143319
706.416	0.0144164
706.494	0.0146980
706.572	0.0148830
706.650	0.0151075
706.728	0.0151519
706.807	0.0154382
706.885	0.0156554
706.963	0.0156933
707.041	0.0157915
707.119	0.0158130
707.197	0.0159274
707.275	0.0159937
707.353	0.0160303
707.432	0.0159834
707.510	0.0159969
707.588	0.0159406
707.666	0.0161044
707.744	0.0157790
707.822	0.0157547
707.900	0.0157578
707.978	0.0158598
708.057	0.0155600
708.135	0.0154692
708.213	0.0153750
708.291	0.0153019
708.369	0.0153065
708.447	0.0151099
708.525	0.0151227
708.603	0.0150751
708.682	0.0149464
708.760	0.0147698
708.838	0.0146397
708.916	0.0148348
708.994	0.0146746
709.072	0.0145112
709.150	0.0144039
709.228	0.0143530
709.307	0.0143762
709.385	0.0141512
709.463	0.0140691
709.541	0.0142018
709.619	0.0141251
709.697	0.0139440
709.775	0.0139080
709.853	0.0139266
709.932	0.0139937
710.010	0.0139384
710.088	0.0138460
710.166	0.0138213
710.244	0.0136831
710.322	0.0137859
710.400	0.0138367
710.478	0.0138630
710.557	0.0136906
710.635	0.0136578
710.713	0.0137379
710.791	0.0136324
710.869	0.0136051
710.947	0.0135564
711.025	0.0135280
711.103	0.0135001
711.182	0.0135809
711.260	0.0135464
711.338	0.0135247
711.416	0.0135506
711.494	0.0136042
711.572	0.0137246
711.650	0.0137630
711.728	0.0138838
711.807	0.0141479
711.885	0.0142717
711.963	0.0143638
712.041	0.0145933
712.119	0.0147076
712.197	0.0148041
712.275	0.0149342
712.353	0.0150921
712.432	0.0152846
712.510	0.0154329
712.588	0.0154268
712.666	0.0155454
712.744	0.0155185
712.822	0.0154360
712.900	0.0154138
712.978	0.0153547
713.057	0.0152956
713.135	0.0153584
713.213	0.0150997
713.291	0.0149947
713.369	0.0148708
713.447	0.0146033
713.525	0.0145145
713.603	0.0144511
713.682	0.0143409
713.760	0.0142606
713.838	0.0141194
713.916	0.0139573
713.994	0.0140434
714.072	0.0140870
714.150	0.0138940
714.228	0.0138865
714.307	0.0139758
714.385	0.0139314
714.463	0.0140541
714.541	0.0139763
714.619	0.0141429
714.697	0.0142508
714.775	0.0144205
714.853	0.0144679
714.932	0.0144575
715.010	0.0145416
715.088	0.0148080
715.166	0.0148308
715.244	0.0149047
715.322	0.0148816
715.400	0.0150172
715.478	0.0150417
715.557	0.0151472
715.635	0.0151049
715.713	0.0150596
715.791	0.0151257
715.869	0.0149812
715.947	0.0148763
716.025	0.0150383
716.103	0.0149380
716.182	0.0147729
716.260	0.0147798
716.338	0.0146446
716.416	0.0145162
716.494	0.0145015
716.572	0.0144004
716.650	0.0143513
716.728	0.0143079
716.807	0.0139542
716.885	0.0138501
716.963	0.0137670
717.041	0.0136399
717.119	0.0136201
717.197	0.0135034
717.275	0.0134969
717.353	0.0132463
717.432	0.0132321
717.510	0.0131966
717.588	0.0132452
717.666	0.0131692
717.744	0.0131636
717.822	0.0132722
717.900	0.0133272
717.978	0.0133778
718.057	0.0133969
718.135	0.0134913
718.213	0.0135653
718.291	0.0136551
718.369	0.0138728
718.447	0.0137510
718.525	0.0137738
718.603	0.0139229
718.682	0.0138784
718.760	0.0140347
718.838	0.0140048
718.916	0.0140475
718.994	0.0140812
719.072	0.0142108
719.150	0.0141383
719.228	0.0141922
719.307	0.0140871
719.385	0.0144525
719.463	0.0144930
719.541	0.0145241
719.619	0.0144810
719.697	0.0145065
719.775	0.0146231
719.853	0.0145904
719.932	0.0147441
720.010	0.0148400
720.088	0.0148460
720.166	0.0149786
720.244	0.0147847
720.322	0.0151452
720.400	0.0151441
720.478	0.0152283
720.557	0.0153389
720.635	0.0152083
720.713	0.0153144
720.791	0.0152342
720.869	0.0152936
720.947	0.0154491
721.025	0.0152097
721.103	0.0152272
721.182	0.0152629
721.260	0.0150822
721.338	0.0149855
721.416	0.0149134
721.494	0.0148694
721.572	0.0148759
721.650	0.0147460
721.728	0.0145923
721.807	0.0146568
721.885	0.0146241
721.963	0.0145005
722.041	0.0145002
722.119	0.0144388
722.197	0.0143562
722.275	0.0143884
722.353	0.0143983
722.432	0.0142588
722.510	0.0141370
722.588	0.0141180
722.666	0.0139871
722.744	0.0141479
722.822	0.0140582
722.900	0.0139669
722.978	0.0139352
723.057	0.0139468
723.135	0.0137919
723.213	0.0136993
723.291	0.0136834
723.369	0.0136495
723.447	0.0134396
723.525	0.0134262
723.603	0.0132528
723.682	0.0133069
723.760	0.0133251
723.838	0.0130888
723.916	0.0131308
723.994	0.0130686
724.072	0.0130884
724.150	0.0130654
724.228	0.0130804
724.307	0.0131210
724.385	0.0132093
724.463	0.0132623
724.541	0.0133300
724.619	0.0134185
724.697	0.0134547
724.775	0.0135868
724.853	0.0137188
724.932	0.0138983
725.010	0.0139954
725.088	0.0140267
725.166	0.0139539
725.244	0.0142434
725.322	0.0144800
725.400	0.0145552
725.478	0.0147000
725.557	0.0146973
725.635	0.0147205
725.713	0.0148658
725.791	0.0150618
725.869	0.0151115
725.947	0.0150007
726.025	0.0152810
726.103	0.0154001
726.182	0.0153310
726.260	0.0153921
726.338	0.0154648
726.416	0.0155388
726.494	0.0156351
726.572	0.0157041
726.650	0.0156773
726.728	0.0154679
726.807	0.0155943
726.885	0.0155451
726.963	0.0156538
727.041	0.0154756
727.119	0.0154893
727.197	0.0154398
727.275	0.0151233
727.353	0.0151671
727.432	0.0147804
727.510	0.0147209
727.588	0.0146444
727.666	0.0145702
727.744	0.0142750
727.822	0.0141451
727.900	0.0140332
727.978	0.0137029
728.057	0.0136169
728.135	0.0137019
728.213	0.0136053
728.291	0.0133450
728.369	0.0131522
728.447	0.0132299
728.525	0.0132669
728.603	0.0132584
728.682	0.0133292
728.760	0.0133565
728.838	0.0133519
728.916	0.0133469
728.994	0.0135133
729.072	0.0137273
729.150	0.0136874
729.228	0.0139101
729.307	0.0138709
729.385	0.0140836
729.463	0.0141846
729.541	0.0142933
729.619	0.0143694
729.697	0.0144301
729.775	0.0145827
729.853	0.0146235
729.932	0.0144943
730.010	0.0145815
730.088	0.0146311
730.166	0.0146513
730.244	0.0146064
730.322	0.0147229
730.400	0.0148319
730.478	0.0145808
730.557	0.0147031
730.635	0.0144862
730.713	0.0146334
730.791	0.0146888
730.869	0.0145932
730.947	0.0145158
731.025	0.0144968
731.103	0.0146252
731.182	0.0145039
731.260	0.0143272
731.338	0.0143346
731.416	0.0143289
731.494	0.0141811
731.572	0.0142602
731.650	0.0141917
731.728	0.0141952
731.807	0.0141706
731.885	0.0140864
731.963	0.0140807
732.041	0.0140804
732.119	0.0139473
732.197	0.0140375
732.275	0.0140388
732.353	0.0139758
732.432	0.0140195
732.510	0.0140546
732.588	0.0140891
732.666	0.0141807
732.744	0.0142345
732.822	0.0142787
732.900	0.0143835
732.978	0.0143526
733.057	0.0144761
733.135	0.0145397
733.213	0.0146034
733.291	0.0147846
733.369	0.0148214
733.447	0.0147105
733.525	0.0147934
733.603	0.0148405
733.682	0.0149750
733.760	0.0149522
733.838	0.0149005
733.916	0.0148936
733.994	0.0149506
734.072	0.0150202
734.150	0.0149561
734.228	0.0149120
734.307	0.0148067
734.385	0.0148447
734.463	0.0148021
734.541	0.0146533
734.619	0.0145481
734.697	0.0145595
734.775	0.0143478
734.853	0.0143584
734.932	0.0142545
735.010	0.0144508
735.088	0.0142672
735.166	0.0142575
735.244	0.0143200
735.322	0.0141839
735.400	0.0141055
735.478	0.0142144
735.557	0.0141780
735.635	0.0141823
735.713	0.0140602
