05/14/2022	19:38:26	Ver.	4.1	UNKNOWN
Optical Delay	650.009681	Delta X		0.078125	Sweeps	1	Scan Rate	0/0
Coordinates	Axis 1	NaN	Axis 2	NaN	Axis 3	NaN	Axis 4	NaN	Axis 5	NaN	Axis 6	0.000000
TX Power	0.000000	RX Power	0.000000

650.010	0.0134961
650.088	0.0134776
650.166	0.0134843
650.244	0.0135719
650.322	0.0134763
650.400	0.0135859
650.478	0.0135275
650.557	0.0136586
650.635	0.0136733
650.713	0.0136205
650.791	0.0135957
650.869	0.0135765
650.947	0.0133740
651.025	0.0136064
651.103	0.0135017
651.182	0.0134580
651.260	0.0132967
651.338	0.0134202
651.416	0.0134158
651.494	0.0133187
651.572	0.0133151
651.650	0.0133395
651.728	0.0133887
651.807	0.0133261
651.885	0.0133251
651.963	0.0132451
652.041	0.0133041
652.119	0.0132976
652.197	0.0132945
652.275	0.0133788
652.353	0.0135017
652.432	0.0134257
652.510	0.0134582
652.588	0.0136068
652.666	0.0134518
652.744	0.0133976
652.822	0.0135215
652.900	0.0134777
652.978	0.0135036
653.057	0.0136440
653.135	0.0134684
653.213	0.0134052
653.291	0.0136582
653.369	0.0136692
653.447	0.0136623
653.525	0.0136282
653.603	0.0136271
653.682	0.0136303
653.760	0.0136477
653.838	0.0138326
653.916	0.0136781
653.994	0.0138361
654.072	0.0137691
654.150	0.0138426
654.228	0.0138345
654.307	0.0138669
654.385	0.0137647
654.463	0.0136133
654.541	0.0136478
654.619	0.0137623
654.697	0.0136063
654.775	0.0135526
654.853	0.0134611
654.932	0.0133604
655.010	0.0134801
655.088	0.0134538
655.166	0.0133272
655.244	0.0134416
655.322	0.0133037
655.400	0.0136596
655.478	0.0135612
655.557	0.0133627
655.635	0.0135088
655.713	0.0136073
655.791	0.0135847
655.869	0.0136265
655.947	0.0137149
656.025	0.0137191
656.103	0.0136816
656.182	0.0137073
656.260	0.0136999
656.338	0.0139081
656.416	0.0137220
656.494	0.0136642
656.572	0.0135628
656.650	0.0136820
656.728	0.0137499
656.807	0.0135500
656.885	0.0135648
656.963	0.0137111
657.041	0.0136388
657.119	0.0135875
657.197	0.0134466
657.275	0.0136112
657.353	0.0135878
657.432	0.0137054
657.510	0.0135471
657.588	0.0135437
657.666	0.0136927
657.744	0.0135480
657.822	0.0137179
657.900	0.0138334
657.978	0.0137513
658.057	0.0138176
658.135	0.0137485
658.213	0.0138589
658.291	0.0137626
658.369	0.0137017
658.447	0.0137191
658.525	0.0137568
658.603	0.0136655
658.682	0.0136475
658.760	0.0136552
658.838	0.0136600
658.916	0.0134818
658.994	0.0134373
659.072	0.0131308
659.150	0.0132721
659.228	0.0132504
659.307	0.0131099
659.385	0.0132529
659.463	0.0130483
659.541	0.0131304
659.619	0.0131941
659.697	0.0132306
659.775	0.0132707
659.853	0.0131713
659.932	0.0134185
660.010	0.0135088
660.088	0.0136951
660.166	0.0137440
660.244	0.0137618
660.322	0.0139300
660.400	0.0141438
660.478	0.0141083
660.557	0.0140237
660.635	0.0141365
660.713	0.0141403
660.791	0.0144255
660.869	0.0143516
660.947	0.0142437
661.025	0.0142844
661.103	0.0143661
661.182	0.0141669
661.260	0.0142159
661.338	0.0141497
661.416	0.0141883
661.494	0.0140580
661.572	0.0138629
661.650	0.0138486
661.728	0.0136947
661.807	0.0135330
661.885	0.0135342
661.963	0.0133116
662.041	0.0133200
662.119	0.0130369
662.197	0.0127889
662.275	0.0125961
662.353	0.0126190
662.432	0.0124916
662.510	0.0125193
662.588	0.0124211
662.666	0.0123523
662.744	0.0124165
662.822	0.0124603
662.900	0.0126220
662.978	0.0126317
663.057	0.0127034
663.135	0.0128036
663.213	0.0130300
663.291	0.0132137
663.369	0.0133221
663.447	0.0135316
663.525	0.0138293
663.603	0.0140567
663.682	0.0141525
663.760	0.0142451
663.838	0.0144667
663.916	0.0146780
663.994	0.0146260
664.072	0.0150130
664.150	0.0149453
664.228	0.0150767
664.307	0.0152457
664.385	0.0151897
664.463	0.0151574
664.541	0.0151808
664.619	0.0154817
664.697	0.0151459
664.775	0.0150836
664.853	0.0151107
664.932	0.0149295
665.010	0.0146550
665.088	0.0143787
665.166	0.0143218
665.244	0.0140885
665.322	0.0138063
665.400	0.0133926
665.478	0.0129913
665.557	0.0126572
665.635	0.0124324
665.713	0.0121282
665.791	0.0117973
665.869	0.0113462
665.947	0.0111081
666.025	0.0109535
666.103	0.0106708
666.182	0.0106055
666.260	0.0103441
666.338	0.0103857
666.416	0.0104607
666.494	0.0105639
666.572	0.0106428
666.650	0.0107747
666.728	0.0110285
666.807	0.0113332
666.885	0.0116011
666.963	0.0121237
667.041	0.0125533
667.119	0.0130344
667.197	0.0135227
667.275	0.0141412
667.353	0.0147441
667.432	0.0153520
667.510	0.0156229
667.588	0.0161601
667.666	0.0165907
667.744	0.0170338
667.822	0.0172388
667.900	0.0174072
667.978	0.0175016
668.057	0.0175436
668.135	0.0176247
668.213	0.0175597
668.291	0.0174495
668.369	0.0171679
668.447	0.0170159
668.525	0.0167620
668.603	0.0162271
668.682	0.0158739
668.760	0.0154102
668.838	0.0148592
668.916	0.0144835
668.994	0.0136328
669.072	0.0132607
669.150	0.0124583
669.228	0.0118714
669.307	0.0115144
669.385	0.0109969
669.463	0.0103828
669.541	0.0100078
669.619	0.00957878
669.697	0.00915367
669.775	0.00916481
669.853	0.00891731
669.932	0.00890984
670.010	0.00885910
670.088	0.00909538
670.166	0.00928642
670.244	0.00952576
670.322	0.00978874
670.400	0.0100906
670.478	0.0105183
670.557	0.0110931
670.635	0.0114606
670.713	0.0117934
670.791	0.0123105
670.869	0.0127490
670.947	0.0133379
671.025	0.0137521
671.103	0.0142943
671.182	0.0148246
671.260	0.0152808
671.338	0.0156651
671.416	0.0161860
671.494	0.0164707
671.572	0.0169246
671.650	0.0171954
671.728	0.0174855
671.807	0.0177307
671.885	0.0177068
671.963	0.0178625
672.041	0.0178175
672.119	0.0179083
672.197	0.0177926
672.275	0.0174917
672.353	0.0172166
672.432	0.0170550
672.510	0.0166792
672.588	0.0161539
672.666	0.0157108
672.744	0.0153098
672.822	0.0147703
672.900	0.0142656
672.978	0.0136256
673.057	0.0131548
673.135	0.0127798
673.213	0.0120870
673.291	0.0115851
673.369	0.0111546
673.447	0.0106560
673.525	0.0103410
673.603	0.00995079
673.682	0.00956116
673.760	0.00932228
673.838	0.00914848
673.916	0.00897438
673.994	0.00894775
674.072	0.00910042
674.150	0.00911339
674.228	0.00930389
674.307	0.00957832
674.385	0.00993744
674.463	0.0102271
674.541	0.0105468
674.619	0.0110448
674.697	0.0114796
674.775	0.0118127
674.853	0.0122352
674.932	0.0126665
675.010	0.0132777
675.088	0.0137523
675.166	0.0139557
675.244	0.0142876
675.322	0.0147453
675.400	0.0151382
675.478	0.0156258
675.557	0.0158483
675.635	0.0162699
675.713	0.0162791
675.791	0.0164565
675.869	0.0167596
675.947	0.0167869
676.025	0.0167091
676.103	0.0167358
676.182	0.0167543
676.260	0.0166233
676.338	0.0164463
676.416	0.0163259
676.494	0.0160538
676.572	0.0158237
676.650	0.0158444
676.728	0.0153835
676.807	0.0151659
676.885	0.0147642
676.963	0.0146207
677.041	0.0142818
677.119	0.0140522
677.197	0.0139154
677.275	0.0134294
677.353	0.0131694
677.432	0.0131110
677.510	0.0129613
677.588	0.0127654
677.666	0.0125650
677.744	0.0122275
677.822	0.0120837
677.900	0.0119596
677.978	0.0117535
678.057	0.0117393
678.135	0.0116951
678.213	0.0115844
678.291	0.0115263
678.369	0.0115669
678.447	0.0117168
678.525	0.0117589
678.603	0.0116567
678.682	0.0118017
678.760	0.0117479
678.838	0.0119033
678.916	0.0119492
678.994	0.0121564
679.072	0.0123132
679.150	0.0122478
679.228	0.0125237
679.307	0.0125613
679.385	0.0126028
679.463	0.0127514
679.541	0.0128284
679.619	0.0132143
679.697	0.0132337
679.775	0.0132270
679.853	0.0133340
679.932	0.0135609
680.010	0.0136305
680.088	0.0136478
680.166	0.0138064
680.244	0.0139018
680.322	0.0140598
680.400	0.0141940
680.478	0.0142742
680.557	0.0142472
680.635	0.0144837
680.713	0.0146461
680.791	0.0144076
680.869	0.0145934
680.947	0.0145876
681.025	0.0147289
681.103	0.0146113
681.182	0.0144052
681.260	0.0144744
681.338	0.0144889
681.416	0.0143893
681.494	0.0143736
681.572	0.0145271
681.650	0.0144133
681.728	0.0143649
681.807	0.0142913
681.885	0.0143681
681.963	0.0142413
682.041	0.0142780
682.119	0.0141743
682.197	0.0141417
682.275	0.0140451
682.353	0.0140421
682.432	0.0138013
682.510	0.0137978
682.588	0.0138620
682.666	0.0138062
682.744	0.0137853
682.822	0.0135976
682.900	0.0134953
682.978	0.0134933
683.057	0.0135001
683.135	0.0134592
683.213	0.0135360
683.291	0.0133878
683.369	0.0133902
683.447	0.0131662
683.525	0.0131121
683.603	0.0130342
683.682	0.0129235
683.760	0.0128543
683.838	0.0128127
683.916	0.0127896
683.994	0.0125526
684.072	0.0124432
684.150	0.0124025
684.228	0.0122684
684.307	0.0121651
684.385	0.0119987
684.463	0.0119305
684.541	0.0120087
684.619	0.0116529
684.697	0.0116062
684.775	0.0116277
684.853	0.0115216
684.932	0.0114993
685.010	0.0114687
685.088	0.0115398
685.166	0.0115745
685.244	0.0116914
685.322	0.0120184
685.400	0.0118512
685.478	0.0121160
685.557	0.0123456
685.635	0.0124358
685.713	0.0127507
685.791	0.0129327
685.869	0.0133689
685.947	0.0135567
686.025	0.0139674
686.103	0.0143144
686.182	0.0146371
686.260	0.0149455
686.338	0.0153460
686.416	0.0157088
686.494	0.0158503
686.572	0.0160046
686.650	0.0162675
686.728	0.0164429
686.807	0.0166578
686.885	0.0167088
686.963	0.0166409
687.041	0.0166354
687.119	0.0166673
687.197	0.0165914
687.275	0.0163853
687.353	0.0161933
687.432	0.0161061
687.510	0.0159245
687.588	0.0156197
687.666	0.0152084
687.744	0.0150075
687.822	0.0146877
687.900	0.0142506
687.978	0.0137482
688.057	0.0133970
688.135	0.0128934
688.213	0.0124426
688.291	0.0121162
688.369	0.0116735
688.447	0.0114925
688.525	0.0110634
688.603	0.0108928
688.682	0.0105835
688.760	0.0105396
688.838	0.0104755
688.916	0.0103262
688.994	0.0102535
689.072	0.0104613
689.150	0.0105840
689.228	0.0107166
689.307	0.0107937
689.385	0.0109460
689.463	0.0112360
689.541	0.0116428
689.619	0.0119585
689.697	0.0120210
689.775	0.0124333
689.853	0.0129018
689.932	0.0129655
690.010	0.0132991
690.088	0.0135865
690.166	0.0138396
690.244	0.0141254
690.322	0.0143564
690.400	0.0144332
690.478	0.0146456
690.557	0.0147180
690.635	0.0148023
690.713	0.0149367
690.791	0.0151809
690.869	0.0150205
690.947	0.0151044
691.025	0.0150857
691.103	0.0151218
691.182	0.0152104
691.260	0.0149993
691.338	0.0151238
691.416	0.0150751
691.494	0.0148540
691.572	0.0148562
691.650	0.0146488
691.728	0.0144581
691.807	0.0143902
691.885	0.0142211
691.963	0.0140250
692.041	0.0138095
692.119	0.0136691
692.197	0.0133910
692.275	0.0132669
692.353	0.0130978
692.432	0.0130428
692.510	0.0129374
692.588	0.0126769
692.666	0.0126289
692.744	0.0125859
692.822	0.0125372
692.900	0.0124545
692.978	0.0124926
693.057	0.0125727
693.135	0.0125887
693.213	0.0127210
693.291	0.0126764
693.369	0.0128537
693.447	0.0128959
693.525	0.0129324
693.603	0.0131232
693.682	0.0129588
693.760	0.0131435
693.838	0.0133849
693.916	0.0133536
693.994	0.0134689
694.072	0.0136699
694.150	0.0136417
694.228	0.0138367
694.307	0.0138221
694.385	0.0140063
694.463	0.0140612
694.541	0.0140452
694.619	0.0140588
694.697	0.0142772
694.775	0.0142169
694.853	0.0141367
694.932	0.0140310
695.010	0.0140551
695.088	0.0139101
695.166	0.0137655
695.244	0.0137083
695.322	0.0134756
695.400	0.0133510
695.478	0.0132941
695.557	0.0129185
695.635	0.0128168
695.713	0.0127456
695.791	0.0126106
695.869	0.0122995
695.947	0.0121935
696.025	0.0121149
696.103	0.0121526
696.182	0.0121123
696.260	0.0120185
696.338	0.0120311
696.416	0.0122871
696.494	0.0121913
696.572	0.0123709
696.650	0.0125747
696.728	0.0127353
696.807	0.0129453
696.885	0.0130587
696.963	0.0132305
697.041	0.0135743
697.119	0.0138062
697.197	0.0139307
697.275	0.0140462
697.353	0.0142892
697.432	0.0143589
697.510	0.0144496
697.588	0.0145205
697.666	0.0145194
697.744	0.0146153
697.822	0.0147261
697.900	0.0147375
697.978	0.0145388
698.057	0.0147084
698.135	0.0145972
698.213	0.0144891
698.291	0.0145090
698.369	0.0145163
698.447	0.0143488
698.525	0.0142829
698.603	0.0142719
698.682	0.0141206
698.760	0.0140587
698.838	0.0138943
698.916	0.0138097
698.994	0.0137768
699.072	0.0134919
699.150	0.0132555
699.228	0.0131013
699.307	0.0129594
699.385	0.0127294
699.463	0.0125581
699.541	0.0124917
699.619	0.0124033
699.697	0.0124212
699.775	0.0123669
699.853	0.0122663
699.932	0.0122992
700.010	0.0123409
700.088	0.0124747
700.166	0.0124842
700.244	0.0125227
700.322	0.0126274
700.400	0.0126568
700.478	0.0128107
700.557	0.0129358
700.635	0.0130666
700.713	0.0132543
700.791	0.0132841
700.869	0.0134641
700.947	0.0135520
701.025	0.0137665
701.103	0.0138122
701.182	0.0139050
701.260	0.0140175
701.338	0.0142532
701.416	0.0142708
701.494	0.0142641
701.572	0.0143315
701.650	0.0142924
701.728	0.0144805
701.807	0.0143854
701.885	0.0142842
701.963	0.0143429
702.041	0.0140491
702.119	0.0139207
702.197	0.0138220
702.275	0.0135747
702.353	0.0133836
702.432	0.0132536
702.510	0.0130891
702.588	0.0130666
702.666	0.0129349
702.744	0.0126771
702.822	0.0127155
702.900	0.0125630
702.978	0.0125016
703.057	0.0124074
703.135	0.0125443
703.213	0.0124236
703.291	0.0123441
703.369	0.0125579
703.447	0.0128144
703.525	0.0129181
703.603	0.0130636
703.682	0.0130979
703.760	0.0133564
703.838	0.0133694
703.916	0.0135129
703.994	0.0136732
704.072	0.0140299
704.150	0.0139487
704.228	0.0140407
704.307	0.0140500
704.385	0.0142670
704.463	0.0143089
704.541	0.0143298
704.619	0.0142471
704.697	0.0143024
704.775	0.0143497
704.853	0.0142094
704.932	0.0142759
705.010	0.0143906
705.088	0.0142586
705.166	0.0142101
705.244	0.0141568
705.322	0.0141914
705.400	0.0139768
705.478	0.0137897
705.557	0.0138111
705.635	0.0135487
705.713	0.0134916
705.791	0.0132591
705.869	0.0130201
705.947	0.0128300
706.025	0.0127319
706.103	0.0125964
706.182	0.0125034
706.260	0.0122685
706.338	0.0121453
706.416	0.0121601
706.494	0.0120511
706.572	0.0119556
706.650	0.0120547
706.728	0.0120996
706.807	0.0120935
706.885	0.0122403
706.963	0.0124595
707.041	0.0125138
707.119	0.0125337
707.197	0.0126807
707.275	0.0129244
707.353	0.0131496
707.432	0.0132829
707.510	0.0134771
707.588	0.0135848
707.666	0.0139536
707.744	0.0140186
707.822	0.0141309
707.900	0.0142055
707.978	0.0144234
708.057	0.0145438
708.135	0.0146700
708.213	0.0147540
708.291	0.0146516
708.369	0.0147804
708.447	0.0147210
708.525	0.0146454
708.603	0.0147063
708.682	0.0145228
708.760	0.0146086
708.838	0.0144711
708.916	0.0142645
708.994	0.0141233
709.072	0.0140902
709.150	0.0138602
709.228	0.0137416
709.307	0.0134734
709.385	0.0134717
709.463	0.0133112
709.541	0.0131204
709.619	0.0129178
709.697	0.0126933
709.775	0.0126132
709.853	0.0125600
709.932	0.0123138
710.010	0.0122092
710.088	0.0120786
710.166	0.0120277
710.244	0.0119573
710.322	0.0119473
710.400	0.0119970
710.478	0.0120070
710.557	0.0119621
710.635	0.0120116
710.713	0.0119954
710.791	0.0121745
710.869	0.0122067
710.947	0.0122715
711.025	0.0125766
711.103	0.0126247
711.182	0.0128600
711.260	0.0128066
711.338	0.0130753
711.416	0.0131758
711.494	0.0132771
711.572	0.0132824
711.650	0.0134191
711.728	0.0136052
711.807	0.0139069
711.885	0.0137904
711.963	0.0139101
712.041	0.0140390
712.119	0.0141921
712.197	0.0144470
712.275	0.0145744
712.353	0.0146780
712.432	0.0147598
712.510	0.0149090
712.588	0.0149144
712.666	0.0151218
712.744	0.0150140
712.822	0.0150504
712.900	0.0150820
712.978	0.0150129
713.057	0.0150539
713.135	0.0149645
713.213	0.0149027
713.291	0.0147422
713.369	0.0147720
713.447	0.0146348
713.525	0.0144205
713.603	0.0143173
713.682	0.0143552
713.760	0.0139449
713.838	0.0137647
713.916	0.0137399
713.994	0.0135175
714.072	0.0133223
714.150	0.0129874
714.228	0.0129216
714.307	0.0127207
714.385	0.0126331
714.463	0.0125211
714.541	0.0123518
714.619	0.0121948
714.697	0.0122363
714.775	0.0122473
714.853	0.0119734
714.932	0.0119354
715.010	0.0120436
715.088	0.0120611
715.166	0.0121329
715.244	0.0120705
715.322	0.0122352
715.400	0.0123705
715.478	0.0123859
715.557	0.0124398
715.635	0.0126215
715.713	0.0127127
715.791	0.0128799
715.869	0.0129765
715.947	0.0131915
716.025	0.0132071
716.103	0.0133444
716.182	0.0134782
716.260	0.0135819
716.338	0.0137365
716.416	0.0138151
716.494	0.0139832
716.572	0.0139852
716.650	0.0140197
716.728	0.0140543
716.807	0.0141732
716.885	0.0141429
716.963	0.0141975
717.041	0.0141699
717.119	0.0142375
717.197	0.0141414
717.275	0.0141897
717.353	0.0142864
717.432	0.0140889
717.510	0.0140774
717.588	0.0141003
717.666	0.0141240
717.744	0.0140562
717.822	0.0139291
717.900	0.0140351
717.978	0.0139627
718.057	0.0138583
718.135	0.0138632
718.213	0.0139330
718.291	0.0138435
718.369	0.0136632
718.447	0.0137424
718.525	0.0136351
718.603	0.0135513
718.682	0.0136813
718.760	0.0135377
718.838	0.0134011
718.916	0.0134207
718.994	0.0133469
719.072	0.0132680
719.150	0.0131436
719.228	0.0131841
719.307	0.0131782
719.385	0.0130986
719.463	0.0131928
719.541	0.0131257
719.619	0.0131219
719.697	0.0131500
719.775	0.0131903
719.853	0.0132000
719.932	0.0131480
720.010	0.0131355
720.088	0.0131902
720.166	0.0130914
720.244	0.0131891
720.322	0.0133677
720.400	0.0131982
720.478	0.0132889
720.557	0.0131866
720.635	0.0132124
720.713	0.0132750
720.791	0.0134522
720.869	0.0134309
720.947	0.0133700
721.025	0.0134517
721.103	0.0134927
721.182	0.0133887
721.260	0.0135016
721.338	0.0135117
721.416	0.0133659
721.494	0.0134949
721.572	0.0134132
721.650	0.0133561
721.728	0.0133680
721.807	0.0134019
721.885	0.0133959
721.963	0.0133019
722.041	0.0132526
722.119	0.0132301
722.197	0.0133328
722.275	0.0133468
722.353	0.0132406
722.432	0.0132529
722.510	0.0133303
722.588	0.0135648
722.666	0.0134232
722.744	0.0134541
722.822	0.0135844
722.900	0.0136631
722.978	0.0135296
723.057	0.0137183
723.135	0.0137643
723.213	0.0137841
723.291	0.0137799
723.369	0.0137935
723.447	0.0139184
723.525	0.0138023
723.603	0.0139326
723.682	0.0137257
723.760	0.0139225
723.838	0.0138472
723.916	0.0137708
723.994	0.0137919
724.072	0.0137678
724.150	0.0138016
724.228	0.0138869
724.307	0.0137753
724.385	0.0137532
724.463	0.0136525
724.541	0.0136247
724.619	0.0135932
724.697	0.0133335
724.775	0.0134551
724.853	0.0132316
724.932	0.0130999
725.010	0.0131142
725.088	0.0130750
725.166	0.0130354
725.244	0.0130281
725.322	0.0130966
725.400	0.0130084
725.478	0.0130125
725.557	0.0130371
725.635	0.0130489
725.713	0.0131588
725.791	0.0130869
725.869	0.0132516
725.947	0.0133745
726.025	0.0133008
726.103	0.0132751
726.182	0.0134299
726.260	0.0135469
726.338	0.0136666
726.416	0.0136388
726.494	0.0137580
726.572	0.0137328
726.650	0.0139292
726.728	0.0138698
726.807	0.0139758
726.885	0.0139911
726.963	0.0138482
727.041	0.0139709
727.119	0.0140153
727.197	0.0140308
727.275	0.0139707
727.353	0.0139626
727.432	0.0139907
727.510	0.0139579
727.588	0.0139938
727.666	0.0138579
727.744	0.0139222
727.822	0.0138616
727.900	0.0139014
727.978	0.0136540
728.057	0.0137418
728.135	0.0137113
728.213	0.0137288
728.291	0.0136636
728.369	0.0135468
728.447	0.0135472
728.525	0.0134624
728.603	0.0133920
728.682	0.0134330
728.760	0.0134885
728.838	0.0133240
728.916	0.0134550
728.994	0.0133641
729.072	0.0132684
729.150	0.0132590
729.228	0.0134101
729.307	0.0133144
729.385	0.0133585
729.463	0.0132529
729.541	0.0132172
729.619	0.0131716
729.697	0.0131968
729.775	0.0131406
729.853	0.0130732
729.932	0.0129047
730.010	0.0130953
730.088	0.0129208
730.166	0.0127284
730.244	0.0128936
730.322	0.0127336
730.400	0.0125974
730.478	0.0127832
730.557	0.0128262
730.635	0.0128126
730.713	0.0128231
730.791	0.0128007
730.869	0.0127045
730.947	0.0128284
731.025	0.0129739
731.103	0.0129307
731.182	0.0131187
731.260	0.0131532
731.338	0.0133817
731.416	0.0133836
731.494	0.0134400
731.572	0.0136385
731.650	0.0138118
731.728	0.0138563
731.807	0.0138637
731.885	0.0140952
731.963	0.0142463
732.041	0.0142943
732.119	0.0142631
732.197	0.0143848
732.275	0.0146497
732.353	0.0144579
732.432	0.0144374
732.510	0.0144405
732.588	0.0143329
732.666	0.0145354
732.744	0.0144746
732.822	0.0144187
732.900	0.0143602
732.978	0.0143122
733.057	0.0143002
733.135	0.0143446
733.213	0.0142096
733.291	0.0140872
733.369	0.0140419
733.447	0.0138773
733.525	0.0138949
733.603	0.0138658
733.682	0.0135994
733.760	0.0135480
733.838	0.0133694
733.916	0.0134034
733.994	0.0133290
734.072	0.0132354
734.150	0.0131518
734.228	0.0131163
734.307	0.0129358
734.385	0.0127982
734.463	0.0130366
734.541	0.0129592
734.619	0.0129649
734.697	0.0128391
734.775	0.0127859
734.853	0.0128392
734.932	0.0130344
735.010	0.0129585
735.088	0.0130058
735.166	0.0130200
735.244	0.0130917
735.322	0.0131358
735.400	0.0131783
735.478	0.0132330
735.557	0.0132603
735.635	0.0131770
