05/14/2022	19:39:21	Ver.	4.1	UNKNOWN
Optical Delay	650.009681	Delta X		0.078125	Sweeps	1	Scan Rate	0/0
Coordinates	Axis 1	NaN	Axis 2	NaN	Axis 3	NaN	Axis 4	NaN	Axis 5	NaN	Axis 6	0.000000
TX Power	0.000000	RX Power	0.000000

650.010	0.0142899
650.088	0.0140934
650.166	0.0141659
650.244	0.0141418
650.322	0.0139117
650.400	0.0140515
650.478	0.0140755
650.557	0.0140120
650.635	0.0140027
650.713	0.0140208
650.791	0.0139685
650.869	0.0140140
650.947	0.0140735
651.025	0.0140604
651.103	0.0141589
651.182	0.0141355
651.260	0.0141130
651.338	0.0140721
651.416	0.0142267
651.494	0.0142197
651.572	0.0143084
651.650	0.0143297
651.728	0.0143339
651.807	0.0143214
651.885	0.0143102
651.963	0.0142667
652.041	0.0143151
652.119	0.0141995
652.197	0.0142155
652.275	0.0143880
652.353	0.0143719
652.432	0.0142139
652.510	0.0143044
652.588	0.0142841
652.666	0.0142271
652.744	0.0142940
652.822	0.0143443
652.900	0.0144872
652.978	0.0143545
653.057	0.0144447
653.135	0.0144742
653.213	0.0142710
653.291	0.0143679
653.369	0.0143441
653.447	0.0143879
653.525	0.0142583
653.603	0.0141502
653.682	0.0143588
653.760	0.0143821
653.838	0.0140994
653.916	0.0141132
653.994	0.0141637
654.072	0.0141047
654.150	0.0139506
654.228	0.0139361
654.307	0.0138804
654.385	0.0139300
654.463	0.0140088
654.541	0.0138599
654.619	0.0140987
654.697	0.0140797
654.775	0.0142341
654.853	0.0143147
654.932	0.0143194
655.010	0.0143250
655.088	0.0142165
655.166	0.0143741
655.244	0.0143752
655.322	0.0144702
655.400	0.0143996
655.478	0.0142755
655.557	0.0143394
655.635	0.0142519
655.713	0.0143085
655.791	0.0142865
655.869	0.0142355
655.947	0.0141768
656.025	0.0140400
656.103	0.0140792
656.182	0.0141018
656.260	0.0139661
656.338	0.0140823
656.416	0.0140457
656.494	0.0139300
656.572	0.0138704
656.650	0.0139668
656.728	0.0140760
656.807	0.0139884
656.885	0.0140034
656.963	0.0140903
657.041	0.0142031
657.119	0.0141975
657.197	0.0142238
657.275	0.0143288
657.353	0.0141383
657.432	0.0142355
657.510	0.0143446
657.588	0.0142648
657.666	0.0143942
657.744	0.0143182
657.822	0.0142667
657.900	0.0142565
657.978	0.0141930
658.057	0.0142203
658.135	0.0140880
658.213	0.0140242
658.291	0.0140452
658.369	0.0138394
658.447	0.0136612
658.525	0.0136645
658.603	0.0136876
658.682	0.0135437
658.760	0.0136156
658.838	0.0137117
658.916	0.0135617
658.994	0.0136659
659.072	0.0137628
659.150	0.0137122
659.228	0.0138589
659.307	0.0139397
659.385	0.0140102
659.463	0.0141688
659.541	0.0144193
659.619	0.0146291
659.697	0.0145313
659.775	0.0146259
659.853	0.0147149
659.932	0.0148144
660.010	0.0148536
660.088	0.0149377
660.166	0.0147350
660.244	0.0147498
660.322	0.0146975
660.400	0.0146562
660.478	0.0146106
660.557	0.0146126
660.635	0.0143992
660.713	0.0142715
660.791	0.0142663
660.869	0.0141133
660.947	0.0138666
661.025	0.0138508
661.103	0.0136864
661.182	0.0135316
661.260	0.0134018
661.338	0.0132573
661.416	0.0131824
661.494	0.0129819
661.572	0.0128779
661.650	0.0128337
661.728	0.0128860
661.807	0.0129081
661.885	0.0129200
661.963	0.0129624
662.041	0.0129292
662.119	0.0130323
662.197	0.0132214
662.275	0.0134065
662.353	0.0137611
662.432	0.0137253
662.510	0.0139376
662.588	0.0141446
662.666	0.0142738
662.744	0.0144683
662.822	0.0147854
662.900	0.0148138
662.978	0.0148802
663.057	0.0150874
663.135	0.0153158
663.213	0.0153906
663.291	0.0154153
663.369	0.0153928
663.447	0.0153989
663.525	0.0154623
663.603	0.0154209
663.682	0.0155140
663.760	0.0155137
663.838	0.0154984
663.916	0.0153088
663.994	0.0152192
664.072	0.0150594
664.150	0.0150695
664.228	0.0149507
664.307	0.0147482
664.385	0.0145406
664.463	0.0142376
664.541	0.0141702
664.619	0.0139121
664.697	0.0136336
664.775	0.0131504
664.853	0.0130035
664.932	0.0127187
665.010	0.0124826
665.088	0.0122229
665.166	0.0119762
665.244	0.0117664
665.322	0.0115083
665.400	0.0114466
665.478	0.0112793
665.557	0.0114382
665.635	0.0113773
665.713	0.0112993
665.791	0.0114452
665.869	0.0116190
665.947	0.0118979
666.025	0.0121577
666.103	0.0125233
666.182	0.0128683
666.260	0.0133014
666.338	0.0138189
666.416	0.0141318
666.494	0.0147787
666.572	0.0152883
666.650	0.0158204
666.728	0.0163102
666.807	0.0168362
666.885	0.0171601
666.963	0.0176682
667.041	0.0180791
667.119	0.0183092
667.197	0.0183707
667.275	0.0185329
667.353	0.0184165
667.432	0.0183011
667.510	0.0180667
667.588	0.0177709
667.666	0.0176460
667.744	0.0173230
667.822	0.0168095
667.900	0.0165828
667.978	0.0160628
668.057	0.0155378
668.135	0.0150443
668.213	0.0143869
668.291	0.0138371
668.369	0.0132691
668.447	0.0127132
668.525	0.0118862
668.603	0.0115285
668.682	0.0110858
668.760	0.0105595
668.838	0.00992943
668.916	0.00979134
668.994	0.00967949
669.072	0.00955185
669.150	0.00937813
669.228	0.00952225
669.307	0.00952011
669.385	0.00997070
669.463	0.0102106
669.541	0.0104731
669.619	0.0109191
669.697	0.0113162
669.775	0.0118673
669.853	0.0123145
669.932	0.0128046
670.010	0.0132653
670.088	0.0137891
670.166	0.0142184
670.244	0.0146256
670.322	0.0150079
670.400	0.0155457
670.478	0.0159381
670.557	0.0162637
670.635	0.0164780
670.713	0.0169833
670.791	0.0173817
670.869	0.0176331
670.947	0.0180414
671.025	0.0179771
671.103	0.0181275
671.182	0.0182046
671.260	0.0184164
671.338	0.0183308
671.416	0.0184088
671.494	0.0182770
671.572	0.0180740
671.650	0.0178458
671.728	0.0175181
671.807	0.0170721
671.885	0.0166489
671.963	0.0163089
672.041	0.0159100
672.119	0.0152328
672.197	0.0149820
672.275	0.0141950
672.353	0.0138486
672.432	0.0133603
672.510	0.0129422
672.588	0.0123429
672.666	0.0118269
672.744	0.0114292
672.822	0.0108767
672.900	0.0103946
672.978	0.0101122
673.057	0.00970947
673.135	0.00956902
673.213	0.00932152
673.291	0.00918472
673.369	0.00914711
673.447	0.00922646
673.525	0.00928421
673.603	0.00946114
673.682	0.00962555
673.760	0.0101899
673.838	0.0105323
673.916	0.0109842
673.994	0.0115739
674.072	0.0120780
674.150	0.0125150
674.228	0.0132175
674.307	0.0137505
674.385	0.0142343
674.463	0.0148395
674.541	0.0153541
674.619	0.0160085
674.697	0.0163290
674.775	0.0167075
674.853	0.0174097
674.932	0.0176620
675.010	0.0178500
675.088	0.0182069
675.166	0.0184988
675.244	0.0185410
675.322	0.0185036
675.400	0.0184051
675.478	0.0182815
675.557	0.0183328
675.635	0.0179842
675.713	0.0177437
675.791	0.0175552
675.869	0.0170536
675.947	0.0168986
676.025	0.0163476
676.103	0.0161003
676.182	0.0156668
676.260	0.0152562
676.338	0.0147761
676.416	0.0144170
676.494	0.0141127
676.572	0.0137469
676.650	0.0131390
676.728	0.0128851
676.807	0.0124909
676.885	0.0121252
676.963	0.0118013
677.041	0.0115884
677.119	0.0113173
677.197	0.0112292
677.275	0.0113634
677.353	0.0112705
677.432	0.0113575
677.510	0.0113223
677.588	0.0115479
677.666	0.0117346
677.744	0.0118149
677.822	0.0121273
677.900	0.0123846
677.978	0.0124825
678.057	0.0125359
678.135	0.0127332
678.213	0.0130893
678.291	0.0132287
678.369	0.0134177
678.447	0.0134866
678.525	0.0136210
678.603	0.0139450
678.682	0.0142365
678.760	0.0143147
678.838	0.0144743
678.916	0.0147237
678.994	0.0147740
679.072	0.0149888
679.150	0.0150848
679.228	0.0151762
679.307	0.0152242
679.385	0.0151499
679.463	0.0151131
679.541	0.0150893
679.619	0.0151262
679.697	0.0151496
679.775	0.0149526
679.853	0.0149847
679.932	0.0148729
680.010	0.0147424
680.088	0.0147369
680.166	0.0146848
680.244	0.0148494
680.322	0.0148276
680.400	0.0147314
680.478	0.0147600
680.557	0.0147929
680.635	0.0148087
680.713	0.0145637
680.791	0.0146312
680.869	0.0147465
680.947	0.0147334
681.025	0.0144542
681.103	0.0145804
681.182	0.0143892
681.260	0.0145041
681.338	0.0144516
681.416	0.0143503
681.494	0.0143475
681.572	0.0144860
681.650	0.0144529
681.728	0.0143847
681.807	0.0142921
681.885	0.0143007
681.963	0.0144292
682.041	0.0143089
682.119	0.0143098
682.197	0.0141609
682.275	0.0140865
682.353	0.0139622
682.432	0.0140099
682.510	0.0136591
682.588	0.0136455
682.666	0.0136458
682.744	0.0135056
682.822	0.0134232
682.900	0.0134344
682.978	0.0134628
683.057	0.0134766
683.135	0.0135203
683.213	0.0132861
683.291	0.0133683
683.369	0.0133652
683.447	0.0131313
683.525	0.0131342
683.603	0.0131527
683.682	0.0129854
683.760	0.0128582
683.838	0.0127554
683.916	0.0125426
683.994	0.0124720
684.072	0.0124236
684.150	0.0124249
684.228	0.0123020
684.307	0.0121243
684.385	0.0123856
684.463	0.0125098
684.541	0.0125031
684.619	0.0126395
684.697	0.0127177
684.775	0.0130488
684.853	0.0132363
684.932	0.0133263
685.010	0.0135329
685.088	0.0136662
685.166	0.0139092
685.244	0.0141185
685.322	0.0144869
685.400	0.0145590
685.478	0.0148425
685.557	0.0150404
685.635	0.0153574
685.713	0.0156591
685.791	0.0157807
685.869	0.0160392
685.947	0.0162940
686.025	0.0163556
686.103	0.0164590
686.182	0.0167469
686.260	0.0167645
686.338	0.0168651
686.416	0.0169871
686.494	0.0168516
686.572	0.0168352
686.650	0.0167265
686.728	0.0164954
686.807	0.0164571
686.885	0.0161998
686.963	0.0159717
687.041	0.0157540
687.119	0.0155630
687.197	0.0153265
687.275	0.0150319
687.353	0.0149101
687.432	0.0146611
687.510	0.0144199
687.588	0.0141588
687.666	0.0138779
687.744	0.0135165
687.822	0.0134565
687.900	0.0129099
687.978	0.0126927
688.057	0.0122443
688.135	0.0119619
688.213	0.0117204
688.291	0.0114811
688.369	0.0113980
688.447	0.0111225
688.525	0.0109695
688.603	0.0109241
688.682	0.0108413
688.760	0.0109336
688.838	0.0109926
688.916	0.0110324
688.994	0.0112476
689.072	0.0114046
689.150	0.0115677
689.228	0.0117372
689.307	0.0121532
689.385	0.0124004
689.463	0.0126304
689.541	0.0127537
689.619	0.0131810
689.697	0.0135457
689.775	0.0138737
689.853	0.0141154
689.932	0.0144060
690.010	0.0148234
690.088	0.0151112
690.166	0.0153075
690.244	0.0156229
690.322	0.0158598
690.400	0.0160797
690.478	0.0165134
690.557	0.0164324
690.635	0.0166856
690.713	0.0169377
690.791	0.0169196
690.869	0.0170061
690.947	0.0169965
691.025	0.0168451
691.103	0.0169558
691.182	0.0166418
691.260	0.0165999
691.338	0.0163131
691.416	0.0159605
691.494	0.0156660
691.572	0.0154492
691.650	0.0151657
691.728	0.0148745
691.807	0.0144615
691.885	0.0141924
691.963	0.0138852
692.041	0.0135589
692.119	0.0133412
692.197	0.0132482
692.275	0.0129556
692.353	0.0127457
692.432	0.0127291
692.510	0.0125062
692.588	0.0124897
692.666	0.0123228
692.744	0.0123392
692.822	0.0123892
692.900	0.0122289
692.978	0.0122280
693.057	0.0122866
693.135	0.0123830
693.213	0.0124788
693.291	0.0123878
693.369	0.0125230
693.447	0.0126715
693.525	0.0127251
693.603	0.0131078
693.682	0.0131603
693.760	0.0135098
693.838	0.0136949
693.916	0.0140714
693.994	0.0143488
694.072	0.0144859
694.150	0.0148603
694.228	0.0149300
694.307	0.0151198
694.385	0.0152107
694.463	0.0152916
694.541	0.0154074
694.619	0.0152638
694.697	0.0152778
694.775	0.0152864
694.853	0.0149888
694.932	0.0148249
695.010	0.0147018
695.088	0.0143594
695.166	0.0142228
695.244	0.0140405
695.322	0.0138094
695.400	0.0136661
695.478	0.0132959
695.557	0.0133540
695.635	0.0130210
695.713	0.0130175
695.791	0.0129172
695.869	0.0128886
695.947	0.0130634
696.025	0.0130603
696.103	0.0131644
696.182	0.0132887
696.260	0.0134482
696.338	0.0135650
696.416	0.0138952
696.494	0.0140202
696.572	0.0143217
696.650	0.0143739
696.728	0.0145271
696.807	0.0146853
696.885	0.0150153
696.963	0.0151473
697.041	0.0152429
697.119	0.0154491
697.197	0.0154850
697.275	0.0155065
697.353	0.0154935
697.432	0.0155710
697.510	0.0155827
697.588	0.0156084
697.666	0.0156198
697.744	0.0155058
697.822	0.0153971
697.900	0.0153158
697.978	0.0150945
698.057	0.0149854
698.135	0.0148685
698.213	0.0147112
698.291	0.0145580
698.369	0.0145228
698.447	0.0143024
698.525	0.0140810
698.603	0.0139824
698.682	0.0136575
698.760	0.0134086
698.838	0.0133440
698.916	0.0130692
698.994	0.0131059
699.072	0.0130254
699.150	0.0129154
699.228	0.0129386
699.307	0.0129790
699.385	0.0128882
699.463	0.0132227
699.541	0.0131986
699.619	0.0133286
699.697	0.0134112
699.775	0.0134930
699.853	0.0135198
699.932	0.0135323
700.010	0.0135510
700.088	0.0135298
700.166	0.0134396
700.244	0.0134521
700.322	0.0134143
700.400	0.0135137
700.478	0.0134093
700.557	0.0135127
700.635	0.0133748
700.713	0.0132606
700.791	0.0134156
700.869	0.0133984
700.947	0.0135886
701.025	0.0138585
701.103	0.0138646
701.182	0.0139787
701.260	0.0141046
701.338	0.0142875
701.416	0.0143851
701.494	0.0145317
701.572	0.0147830
701.650	0.0148512
701.728	0.0149347
701.807	0.0150723
701.885	0.0151402
701.963	0.0153082
702.041	0.0151595
702.119	0.0152269
702.197	0.0152494
702.275	0.0150889
702.353	0.0151128
702.432	0.0151729
702.510	0.0149425
702.588	0.0147571
702.666	0.0147367
702.744	0.0144515
702.822	0.0143302
702.900	0.0141872
702.978	0.0139959
703.057	0.0137921
703.135	0.0138712
703.213	0.0136032
703.291	0.0134084
703.369	0.0133946
703.447	0.0131993
703.525	0.0131132
703.603	0.0130702
703.682	0.0130929
703.760	0.0129945
703.838	0.0130682
703.916	0.0129480
703.994	0.0130271
704.072	0.0132417
704.150	0.0134582
704.228	0.0136053
704.307	0.0135725
704.385	0.0140017
704.463	0.0142244
704.541	0.0143268
704.619	0.0145719
704.697	0.0149226
704.775	0.0151157
704.853	0.0153088
704.932	0.0154264
705.010	0.0154092
705.088	0.0155647
705.166	0.0155176
705.244	0.0156124
705.322	0.0155824
705.400	0.0154288
705.478	0.0154305
705.557	0.0153127
705.635	0.0151309
705.713	0.0149815
705.791	0.0147734
705.869	0.0146541
705.947	0.0143073
706.025	0.0141908
706.103	0.0139491
706.182	0.0136540
706.260	0.0136385
706.338	0.0134528
706.416	0.0132049
706.494	0.0130041
706.572	0.0127916
706.650	0.0127087
706.728	0.0125972
706.807	0.0125066
706.885	0.0125200
706.963	0.0124222
707.041	0.0122635
707.119	0.0124267
707.197	0.0124763
707.275	0.0125327
707.353	0.0127273
707.432	0.0129131
707.510	0.0132628
707.588	0.0133630
707.666	0.0135573
707.744	0.0136956
707.822	0.0138855
707.900	0.0141444
707.978	0.0142434
708.057	0.0144861
708.135	0.0146899
708.213	0.0148508
708.291	0.0149536
708.369	0.0150361
708.447	0.0151752
708.525	0.0154196
708.603	0.0155340
708.682	0.0156367
708.760	0.0156487
708.838	0.0156947
708.916	0.0156258
708.994	0.0155094
709.072	0.0156559
709.150	0.0156184
709.228	0.0154479
709.307	0.0152239
709.385	0.0151291
709.463	0.0150842
709.541	0.0149413
709.619	0.0148849
709.697	0.0146489
709.775	0.0144141
709.853	0.0142941
709.932	0.0142959
710.010	0.0139250
710.088	0.0138685
710.166	0.0135807
710.244	0.0136610
710.322	0.0135505
710.400	0.0134666
710.478	0.0132815
710.557	0.0129941
710.635	0.0130910
710.713	0.0129447
710.791	0.0129539
710.869	0.0128979
710.947	0.0128437
711.025	0.0127077
711.103	0.0127847
711.182	0.0127008
711.260	0.0126616
711.338	0.0129633
711.416	0.0129667
711.494	0.0131033
711.572	0.0132108
711.650	0.0132429
711.728	0.0132112
711.807	0.0134383
711.885	0.0135902
711.963	0.0138016
712.041	0.0138992
712.119	0.0139350
712.197	0.0142447
712.275	0.0143295
712.353	0.0145002
712.432	0.0146538
712.510	0.0147316
712.588	0.0149356
712.666	0.0149292
712.744	0.0150224
712.822	0.0152338
712.900	0.0153108
712.978	0.0153694
713.057	0.0154395
713.135	0.0153057
713.213	0.0154001
713.291	0.0154871
713.369	0.0154745
713.447	0.0154116
713.525	0.0152647
713.603	0.0151653
713.682	0.0150092
713.760	0.0149869
713.838	0.0148621
713.916	0.0146451
713.994	0.0143455
714.072	0.0143377
714.150	0.0142719
714.228	0.0143938
714.307	0.0140684
714.385	0.0138967
714.463	0.0139214
714.541	0.0137659
714.619	0.0136503
714.697	0.0134095
714.775	0.0135238
714.853	0.0133720
714.932	0.0132359
715.010	0.0131168
715.088	0.0129500
715.166	0.0130166
715.244	0.0129691
715.322	0.0129452
715.400	0.0129288
715.478	0.0130746
715.557	0.0130497
715.635	0.0130420
715.713	0.0131422
715.791	0.0132755
715.869	0.0134290
715.947	0.0134249
716.025	0.0136028
716.103	0.0137714
716.182	0.0137562
716.260	0.0139912
716.338	0.0141560
716.416	0.0140646
716.494	0.0142465
716.572	0.0141747
716.650	0.0144135
716.728	0.0144906
716.807	0.0145155
716.885	0.0146333
716.963	0.0146490
717.041	0.0148069
717.119	0.0147726
717.197	0.0148156
717.275	0.0147997
717.353	0.0149576
717.432	0.0149294
717.510	0.0147978
717.588	0.0150035
717.666	0.0149370
717.744	0.0147139
717.822	0.0147496
717.900	0.0147951
717.978	0.0147343
718.057	0.0147268
718.135	0.0147587
718.213	0.0146777
718.291	0.0147652
718.369	0.0146730
718.447	0.0147668
718.525	0.0147450
718.603	0.0146103
718.682	0.0145674
718.760	0.0144984
718.838	0.0144955
718.916	0.0144970
718.994	0.0144508
719.072	0.0143011
719.150	0.0142863
719.228	0.0141867
719.307	0.0140274
719.385	0.0139549
719.463	0.0139892
719.541	0.0138531
719.619	0.0137724
719.697	0.0138403
719.775	0.0137035
719.853	0.0138110
719.932	0.0137505
720.010	0.0134875
720.088	0.0135724
720.166	0.0136937
720.244	0.0135909
720.322	0.0136159
720.400	0.0136918
720.478	0.0135864
720.557	0.0135041
720.635	0.0136870
720.713	0.0136816
720.791	0.0137477
720.869	0.0136909
720.947	0.0135678
721.025	0.0137406
721.103	0.0137289
721.182	0.0138034
721.260	0.0137862
721.338	0.0138898
721.416	0.0139082
721.494	0.0139687
721.572	0.0141326
721.650	0.0140547
721.728	0.0142387
721.807	0.0142054
721.885	0.0143488
721.963	0.0145117
722.041	0.0144883
722.119	0.0143643
722.197	0.0145519
722.275	0.0146258
722.353	0.0145805
722.432	0.0146934
722.510	0.0146067
722.588	0.0145226
722.666	0.0146349
722.744	0.0145030
722.822	0.0145153
722.900	0.0143311
722.978	0.0144536
723.057	0.0144151
723.135	0.0143367
723.213	0.0142294
723.291	0.0143515
723.369	0.0142712
723.447	0.0142286
723.525	0.0144603
723.603	0.0143304
723.682	0.0144558
723.760	0.0143911
723.838	0.0145042
723.916	0.0145728
723.994	0.0143842
724.072	0.0143326
724.150	0.0143331
724.228	0.0142365
724.307	0.0143552
724.385	0.0141693
724.463	0.0141067
724.541	0.0140395
724.619	0.0138866
724.697	0.0139987
724.775	0.0139117
724.853	0.0138101
724.932	0.0137904
725.010	0.0138200
725.088	0.0140339
725.166	0.0138496
725.244	0.0137878
725.322	0.0137255
725.400	0.0137278
725.478	0.0140256
725.557	0.0138794
725.635	0.0139144
725.713	0.0139194
725.791	0.0139407
725.869	0.0140521
725.947	0.0139360
726.025	0.0139999
726.103	0.0140076
726.182	0.0139506
726.260	0.0139530
726.338	0.0140651
726.416	0.0141422
726.494	0.0140738
726.572	0.0140751
726.650	0.0142241
726.728	0.0139607
726.807	0.0142181
726.885	0.0141709
726.963	0.0141080
727.041	0.0140131
727.119	0.0140545
727.197	0.0141848
727.275	0.0141978
727.353	0.0139567
727.432	0.0140221
727.510	0.0141645
727.588	0.0141644
727.666	0.0141833
727.744	0.0141636
727.822	0.0143510
727.900	0.0142294
727.978	0.0143136
728.057	0.0143356
728.135	0.0145027
728.213	0.0144688
728.291	0.0144456
728.369	0.0145804
728.447	0.0147048
728.525	0.0146161
728.603	0.0146400
728.682	0.0148238
728.760	0.0148110
728.838	0.0149011
728.916	0.0147823
728.994	0.0148799
729.072	0.0148183
729.150	0.0149037
729.228	0.0148180
729.307	0.0147189
729.385	0.0146521
729.463	0.0144587
729.541	0.0143843
729.619	0.0143531
729.697	0.0141327
729.775	0.0140671
729.853	0.0140427
729.932	0.0137804
730.010	0.0135317
730.088	0.0137375
730.166	0.0135857
730.244	0.0133395
730.322	0.0132964
730.400	0.0133172
730.478	0.0132690
730.557	0.0132259
730.635	0.0134334
730.713	0.0133926
730.791	0.0132951
730.869	0.0133265
730.947	0.0134669
731.025	0.0134489
731.103	0.0134885
731.182	0.0136047
731.260	0.0137305
731.338	0.0138068
731.416	0.0138773
731.494	0.0139165
731.572	0.0139354
731.650	0.0139471
731.728	0.0139579
731.807	0.0140921
731.885	0.0141903
731.963	0.0143816
732.041	0.0144743
732.119	0.0144360
732.197	0.0143796
732.275	0.0145907
732.353	0.0147948
732.432	0.0147282
732.510	0.0146955
732.588	0.0147897
732.666	0.0150992
732.744	0.0151476
732.822	0.0150010
732.900	0.0150603
732.978	0.0150291
733.057	0.0151567
733.135	0.0150961
733.213	0.0149681
733.291	0.0151926
733.369	0.0150653
733.447	0.0148653
733.525	0.0148845
733.603	0.0148859
733.682	0.0148263
733.760	0.0146970
733.838	0.0144386
733.916	0.0143906
733.994	0.0142501
734.072	0.0140909
734.150	0.0139428
734.228	0.0139439
734.307	0.0138783
734.385	0.0136849
734.463	0.0135807
734.541	0.0136756
734.619	0.0136267
734.697	0.0135226
734.775	0.0136581
734.853	0.0134532
734.932	0.0134978
735.010	0.0135560
735.088	0.0135930
735.166	0.0135068
735.244	0.0134473
735.322	0.0136702
735.400	0.0136513
735.478	0.0136765
735.557	0.0137288
735.635	0.0137077
