05/14/2022	19:40:16	Ver.	4.1	UNKNOWN
Optical Delay	650.009681	Delta X		0.078125	Sweeps	1	Scan Rate	0/0
Coordinates	Axis 1	NaN	Axis 2	NaN	Axis 3	NaN	Axis 4	NaN	Axis 5	NaN	Axis 6	0.000000
TX Power	0.000000	RX Power	0.000000

650.010	0.0140540
650.088	0.0139785
650.166	0.0138110
650.244	0.0140011
650.322	0.0140351
650.400	0.0139387
650.478	0.0139694
650.557	0.0140040
650.635	0.0141763
650.713	0.0141431
650.791	0.0141746
650.869	0.0139775
650.947	0.0141656
651.025	0.0141029
651.103	0.0141048
651.182	0.0140929
651.260	0.0142008
651.338	0.0141129
651.416	0.0139555
651.494	0.0139619
651.572	0.0139994
651.650	0.0139710
651.728	0.0139353
651.807	0.0139709
651.885	0.0141193
651.963	0.0140278
652.041	0.0140662
652.119	0.0140350
652.197	0.0141801
652.275	0.0141444
652.353	0.0140743
652.432	0.0142011
652.510	0.0139120
652.588	0.0139326
652.666	0.0140388
652.744	0.0140249
652.822	0.0140610
652.900	0.0140839
652.978	0.0140243
653.057	0.0139993
653.135	0.0138741
653.213	0.0138114
653.291	0.0138229
653.369	0.0139030
653.447	0.0137644
653.525	0.0137679
653.603	0.0136064
653.682	0.0135926
653.760	0.0136751
653.838	0.0136646
653.916	0.0137502
653.994	0.0137771
654.072	0.0138799
654.150	0.0139266
654.228	0.0140943
654.307	0.0140749
654.385	0.0140815
654.463	0.0141763
654.541	0.0142217
654.619	0.0142267
654.697	0.0144215
654.775	0.0143422
654.853	0.0143597
654.932	0.0142674
655.010	0.0142368
655.088	0.0142448
655.166	0.0140360
655.244	0.0141389
655.322	0.0140800
655.400	0.0140429
655.478	0.0138313
655.557	0.0139101
655.635	0.0140160
655.713	0.0139030
655.791	0.0137984
655.869	0.0137759
655.947	0.0139744
656.025	0.0138736
656.103	0.0140005
656.182	0.0140329
656.260	0.0139172
656.338	0.0141063
656.416	0.0140748
656.494	0.0141322
656.572	0.0142967
656.650	0.0141537
656.728	0.0143240
656.807	0.0144495
656.885	0.0143121
656.963	0.0144007
657.041	0.0145049
657.119	0.0142275
657.197	0.0144003
657.275	0.0143336
657.353	0.0143326
657.432	0.0142258
657.510	0.0142483
657.588	0.0142591
657.666	0.0140995
657.744	0.0139119
657.822	0.0138959
657.900	0.0138234
657.978	0.0136584
658.057	0.0135401
658.135	0.0137318
658.213	0.0134968
658.291	0.0136095
658.369	0.0136347
658.447	0.0137073
658.525	0.0136596
658.603	0.0138401
658.682	0.0140910
658.760	0.0141408
658.838	0.0143139
658.916	0.0143999
658.994	0.0145216
659.072	0.0147346
659.150	0.0147858
659.228	0.0148151
659.307	0.0149047
659.385	0.0151128
659.463	0.0151312
659.541	0.0150909
659.619	0.0150903
659.697	0.0149835
659.775	0.0149837
659.853	0.0148681
659.932	0.0147702
660.010	0.0145549
660.088	0.0144699
660.166	0.0142944
660.244	0.0143572
660.322	0.0139339
660.400	0.0138825
660.478	0.0137960
660.557	0.0136530
660.635	0.0134802
660.713	0.0133540
660.791	0.0131509
660.869	0.0129515
660.947	0.0130051
661.025	0.0130379
661.103	0.0128863
661.182	0.0128703
661.260	0.0127865
661.338	0.0128505
661.416	0.0129375
661.494	0.0129781
661.572	0.0131488
661.650	0.0133550
661.728	0.0135004
661.807	0.0137917
661.885	0.0140108
661.963	0.0140562
662.041	0.0143742
662.119	0.0145068
662.197	0.0145236
662.275	0.0149268
662.353	0.0150652
662.432	0.0149682
662.510	0.0151476
662.588	0.0153738
662.666	0.0153772
662.744	0.0153269
662.822	0.0152597
662.900	0.0151487
662.978	0.0152487
663.057	0.0151977
663.135	0.0150768
663.213	0.0149419
663.291	0.0149034
663.369	0.0147735
663.447	0.0146590
663.525	0.0145988
663.603	0.0144334
663.682	0.0144913
663.760	0.0143091
663.838	0.0140174
663.916	0.0139207
663.994	0.0138554
664.072	0.0136220
664.150	0.0134026
664.228	0.0131158
664.307	0.0129717
664.385	0.0128616
664.463	0.0126294
664.541	0.0122874
664.619	0.0122345
664.697	0.0121252
664.775	0.0119883
664.853	0.0118797
664.932	0.0118284
665.010	0.0118362
665.088	0.0117307
665.166	0.0117730
665.244	0.0120246
665.322	0.0122043
665.400	0.0122318
665.478	0.0124351
665.557	0.0128273
665.635	0.0131091
665.713	0.0133650
665.791	0.0138362
665.869	0.0142968
665.947	0.0146091
666.025	0.0151500
666.103	0.0155855
666.182	0.0159620
666.260	0.0164227
666.338	0.0169068
666.416	0.0172166
666.494	0.0174994
666.572	0.0176967
666.650	0.0179182
666.728	0.0180279
666.807	0.0179343
666.885	0.0180009
666.963	0.0178189
667.041	0.0175967
667.119	0.0171970
667.197	0.0169286
667.275	0.0165882
667.353	0.0162364
667.432	0.0156408
667.510	0.0151543
667.588	0.0146489
667.666	0.0140965
667.744	0.0136923
667.822	0.0131117
667.900	0.0124976
667.978	0.0119881
668.057	0.0115000
668.135	0.0108876
668.213	0.0106405
668.291	0.0103754
668.369	0.0100392
668.447	0.00980919
668.525	0.00968544
668.603	0.00960075
668.682	0.00975090
668.760	0.00996979
668.838	0.0100800
668.916	0.0103030
668.994	0.0107533
669.072	0.0111364
669.150	0.0114950
669.228	0.0119851
669.307	0.0123672
669.385	0.0130204
669.463	0.0132903
669.541	0.0137579
669.619	0.0142973
669.697	0.0147221
669.775	0.0151669
669.853	0.0155275
669.932	0.0157716
670.010	0.0162603
670.088	0.0165784
670.166	0.0168080
670.244	0.0169872
670.322	0.0173300
670.400	0.0174681
670.478	0.0176952
670.557	0.0179230
670.635	0.0179778
670.713	0.0178422
670.791	0.0179543
670.869	0.0179476
670.947	0.0178694
671.025	0.0176255
671.103	0.0174075
671.182	0.0170109
671.260	0.0167731
671.338	0.0165907
671.416	0.0161121
671.494	0.0158334
671.572	0.0153001
671.650	0.0150332
671.728	0.0146078
671.807	0.0143220
671.885	0.0138273
671.963	0.0133366
672.041	0.0128474
672.119	0.0125551
672.197	0.0118958
672.275	0.0114713
672.353	0.0108103
672.432	0.0106223
672.510	0.0102212
672.588	0.00985687
672.666	0.00951462
672.744	0.00910965
672.822	0.00899086
672.900	0.00918823
672.978	0.00904121
673.057	0.00926445
673.135	0.00940727
673.213	0.00962669
673.291	0.0100253
673.369	0.0103970
673.447	0.0107298
673.525	0.0112949
673.603	0.0117655
673.682	0.0123380
673.760	0.0129768
673.838	0.0134657
673.916	0.0140210
673.994	0.0147260
674.072	0.0152082
674.150	0.0158349
674.228	0.0165415
674.307	0.0169275
674.385	0.0174956
674.463	0.0178680
674.541	0.0182674
674.619	0.0184863
674.697	0.0188000
674.775	0.0189283
674.853	0.0189674
674.932	0.0188908
675.010	0.0187645
675.088	0.0185920
675.166	0.0185104
675.244	0.0181684
675.322	0.0178368
675.400	0.0174275
675.478	0.0169595
675.557	0.0163985
675.635	0.0159254
675.713	0.0155859
675.791	0.0149772
675.869	0.0146318
675.947	0.0141880
676.025	0.0137104
676.103	0.0132143
676.182	0.0129313
676.260	0.0124404
676.338	0.0121399
676.416	0.0116785
676.494	0.0113847
676.572	0.0111323
676.650	0.0109368
676.728	0.0107159
676.807	0.0104401
676.885	0.0104146
676.963	0.0104790
677.041	0.0106010
677.119	0.0106209
677.197	0.0106642
677.275	0.0111362
677.353	0.0113734
677.432	0.0114292
677.510	0.0119315
677.588	0.0122848
677.666	0.0125520
677.744	0.0128355
677.822	0.0131995
677.900	0.0135954
677.978	0.0137518
678.057	0.0139090
678.135	0.0143990
678.213	0.0147660
678.291	0.0147900
678.369	0.0149435
678.447	0.0153001
678.525	0.0154791
678.603	0.0157076
678.682	0.0157475
678.760	0.0159383
678.838	0.0158083
678.916	0.0158750
678.994	0.0160558
679.072	0.0159265
679.150	0.0158437
679.228	0.0157510
679.307	0.0157370
679.385	0.0156381
679.463	0.0155191
679.541	0.0153092
679.619	0.0151944
679.697	0.0150912
679.775	0.0150061
679.853	0.0148547
679.932	0.0146160
680.010	0.0143983
680.088	0.0143011
680.166	0.0141505
680.244	0.0140244
680.322	0.0141405
680.400	0.0139938
680.478	0.0139564
680.557	0.0139091
680.635	0.0141039
680.713	0.0140048
680.791	0.0139666
680.869	0.0141240
680.947	0.0141375
681.025	0.0140461
681.103	0.0141804
681.182	0.0140077
681.260	0.0140428
681.338	0.0142101
681.416	0.0140804
681.494	0.0141274
681.572	0.0140823
681.650	0.0138964
681.728	0.0140024
681.807	0.0139840
681.885	0.0137396
681.963	0.0139864
682.041	0.0139156
682.119	0.0137880
682.197	0.0137960
682.275	0.0137894
682.353	0.0136447
682.432	0.0135293
682.510	0.0135685
682.588	0.0135290
682.666	0.0134766
682.744	0.0134065
682.822	0.0132378
682.900	0.0134123
682.978	0.0132450
683.057	0.0132428
683.135	0.0131511
683.213	0.0129241
683.291	0.0129001
683.369	0.0127515
683.447	0.0127554
683.525	0.0126756
683.603	0.0124132
683.682	0.0123279
683.760	0.0124708
683.838	0.0122218
683.916	0.0122416
683.994	0.0122709
684.072	0.0124049
684.150	0.0124757
684.228	0.0125454
684.307	0.0127992
684.385	0.0129631
684.463	0.0131729
684.541	0.0133807
684.619	0.0136253
684.697	0.0140422
684.775	0.0142442
684.853	0.0143778
684.932	0.0146510
685.010	0.0148810
685.088	0.0152373
685.166	0.0154179
685.244	0.0157547
685.322	0.0157867
685.400	0.0160757
685.478	0.0160979
685.557	0.0161179
685.635	0.0163629
685.713	0.0165178
685.791	0.0163062
685.869	0.0164426
685.947	0.0163731
686.025	0.0164602
686.103	0.0164600
686.182	0.0162680
686.260	0.0160548
686.338	0.0157522
686.416	0.0158407
686.494	0.0155665
686.572	0.0154058
686.650	0.0152850
686.728	0.0149882
686.807	0.0147140
686.885	0.0146614
686.963	0.0144401
687.041	0.0141501
687.119	0.0140062
687.197	0.0138951
687.275	0.0138284
687.353	0.0134985
687.432	0.0134072
687.510	0.0132330
687.588	0.0129935
687.666	0.0128936
687.744	0.0126575
687.822	0.0125813
687.900	0.0126033
687.978	0.0123866
688.057	0.0123528
688.135	0.0122332
688.213	0.0119798
688.291	0.0120901
688.369	0.0119531
688.447	0.0118472
688.525	0.0117374
688.603	0.0117870
688.682	0.0116718
688.760	0.0117635
688.838	0.0117850
688.916	0.0118018
688.994	0.0118124
689.072	0.0118583
689.150	0.0120868
689.228	0.0122602
689.307	0.0123842
689.385	0.0126299
689.463	0.0128819
689.541	0.0132428
689.619	0.0135288
689.697	0.0136623
689.775	0.0140318
689.853	0.0146140
689.932	0.0149004
690.010	0.0153179
690.088	0.0154990
690.166	0.0159378
690.244	0.0163412
690.322	0.0166062
690.400	0.0169577
690.478	0.0173261
690.557	0.0174384
690.635	0.0176340
690.713	0.0176613
690.791	0.0176118
690.869	0.0177205
690.947	0.0175840
691.025	0.0173908
691.103	0.0170664
691.182	0.0168647
691.260	0.0166681
691.338	0.0162444
691.416	0.0161652
691.494	0.0157690
691.572	0.0153868
691.650	0.0151637
691.728	0.0147707
691.807	0.0143748
691.885	0.0140482
691.963	0.0137598
692.041	0.0133282
692.119	0.0130641
692.197	0.0126350
692.275	0.0124339
692.353	0.0121873
692.432	0.0120494
692.510	0.0117815
692.588	0.0117078
692.666	0.0116247
692.744	0.0114391
692.822	0.0115005
692.900	0.0116055
692.978	0.0115926
693.057	0.0116147
693.135	0.0117182
693.213	0.0118414
693.291	0.0120251
693.369	0.0120829
693.447	0.0122811
693.525	0.0124576
693.603	0.0125410
693.682	0.0127666
693.760	0.0130129
693.838	0.0132448
693.916	0.0135871
693.994	0.0137077
694.072	0.0138726
694.150	0.0139942
694.228	0.0141821
694.307	0.0144440
694.385	0.0146114
694.463	0.0146258
694.541	0.0147150
694.619	0.0148274
694.697	0.0147758
694.775	0.0147713
694.853	0.0150048
694.932	0.0149223
695.010	0.0149100
695.088	0.0149243
695.166	0.0149482
695.244	0.0149089
695.322	0.0148805
695.400	0.0150396
695.478	0.0149868
695.557	0.0148342
695.635	0.0148053
695.713	0.0147761
695.791	0.0147964
695.869	0.0147271
695.947	0.0147707
696.025	0.0145887
696.103	0.0145960
696.182	0.0144833
696.260	0.0144160
696.338	0.0144717
696.416	0.0144105
696.494	0.0142645
696.572	0.0142823
696.650	0.0142116
696.728	0.0142243
696.807	0.0142030
696.885	0.0142537
696.963	0.0144009
697.041	0.0143443
697.119	0.0145045
697.197	0.0145646
697.275	0.0146111
697.353	0.0147555
697.432	0.0148838
697.510	0.0148072
697.588	0.0148820
697.666	0.0148787
697.744	0.0150738
697.822	0.0149019
697.900	0.0148771
697.978	0.0147092
698.057	0.0146703
698.135	0.0144365
698.213	0.0143454
698.291	0.0142848
698.369	0.0141561
698.447	0.0139967
698.525	0.0136789
698.603	0.0136591
698.682	0.0134578
698.760	0.0134310
698.838	0.0132461
698.916	0.0131316
698.994	0.0129836
699.072	0.0130305
699.150	0.0128725
699.228	0.0129630
699.307	0.0128509
699.385	0.0128731
699.463	0.0128973
699.541	0.0128810
699.619	0.0129015
699.697	0.0130191
699.775	0.0131903
699.853	0.0132310
699.932	0.0133299
700.010	0.0134007
700.088	0.0134652
700.166	0.0135965
700.244	0.0135504
700.322	0.0138346
700.400	0.0138369
700.478	0.0139014
700.557	0.0137592
700.635	0.0139960
700.713	0.0139896
700.791	0.0140507
700.869	0.0140866
700.947	0.0140485
701.025	0.0141022
701.103	0.0143284
701.182	0.0143156
701.260	0.0144486
701.338	0.0145288
701.416	0.0145412
701.494	0.0145674
701.572	0.0146552
701.650	0.0146800
701.728	0.0149148
701.807	0.0149570
701.885	0.0149528
701.963	0.0149879
702.041	0.0151247
702.119	0.0151920
702.197	0.0153840
702.275	0.0152420
702.353	0.0154212
702.432	0.0154564
702.510	0.0153712
702.588	0.0154458
702.666	0.0153246
702.744	0.0153314
702.822	0.0151520
702.900	0.0151074
702.978	0.0149099
703.057	0.0146379
703.135	0.0144651
703.213	0.0143594
703.291	0.0141592
703.369	0.0137064
703.447	0.0136993
703.525	0.0135447
703.603	0.0132227
703.682	0.0131300
703.760	0.0129061
703.838	0.0128645
703.916	0.0125768
703.994	0.0126205
704.072	0.0126136
704.150	0.0125666
704.228	0.0125587
704.307	0.0126560
704.385	0.0126706
704.463	0.0129756
704.541	0.0131072
704.619	0.0132065
704.697	0.0134337
704.775	0.0136166
704.853	0.0136706
704.932	0.0139643
705.010	0.0141350
705.088	0.0142915
705.166	0.0146880
705.244	0.0148523
705.322	0.0149529
705.400	0.0150449
705.478	0.0150352
705.557	0.0152181
705.635	0.0151934
705.713	0.0152454
705.791	0.0152292
705.869	0.0150255
705.947	0.0149766
706.025	0.0148355
706.103	0.0146400
706.182	0.0145185
706.260	0.0144124
706.338	0.0142930
706.416	0.0140901
706.494	0.0138972
706.572	0.0137949
706.650	0.0135540
706.728	0.0135384
706.807	0.0133911
706.885	0.0132350
706.963	0.0131248
707.041	0.0130081
707.119	0.0130882
707.197	0.0130772
707.275	0.0129281
707.353	0.0129535
707.432	0.0128671
707.510	0.0128838
707.588	0.0129738
707.666	0.0130402
707.744	0.0129175
707.822	0.0133295
707.900	0.0133696
707.978	0.0134985
708.057	0.0136140
708.135	0.0139545
708.213	0.0141821
708.291	0.0142889
708.369	0.0145335
708.447	0.0146392
708.525	0.0147060
708.603	0.0148945
708.682	0.0150259
708.760	0.0150690
708.838	0.0152512
708.916	0.0153577
708.994	0.0153745
709.072	0.0154757
709.150	0.0154635
709.228	0.0155816
709.307	0.0156877
709.385	0.0155013
709.463	0.0156808
709.541	0.0154796
709.619	0.0155994
709.697	0.0155709
709.775	0.0153911
709.853	0.0153255
709.932	0.0152232
710.010	0.0149795
710.088	0.0148427
710.166	0.0146373
710.244	0.0144003
710.322	0.0141838
710.400	0.0141247
710.478	0.0139543
710.557	0.0136500
710.635	0.0136717
710.713	0.0134003
710.791	0.0133778
710.869	0.0132959
710.947	0.0131238
711.025	0.0130878
711.103	0.0129762
711.182	0.0129382
711.260	0.0128012
711.338	0.0127630
711.416	0.0127969
711.494	0.0128307
711.572	0.0127590
711.650	0.0127312
711.728	0.0127463
711.807	0.0130070
711.885	0.0129976
711.963	0.0129821
712.041	0.0131590
712.119	0.0132977
712.197	0.0133077
712.275	0.0134767
712.353	0.0136871
712.432	0.0137598
712.510	0.0140621
712.588	0.0141286
712.666	0.0141241
712.744	0.0143191
712.822	0.0145416
712.900	0.0144460
712.978	0.0143382
713.057	0.0143518
713.135	0.0145801
713.213	0.0145493
713.291	0.0145828
713.369	0.0147121
713.447	0.0147847
713.525	0.0147268
713.603	0.0149335
713.682	0.0148473
713.760	0.0148801
713.838	0.0150492
713.916	0.0151117
713.994	0.0151517
714.072	0.0152606
714.150	0.0152002
714.228	0.0151071
714.307	0.0152361
714.385	0.0150708
714.463	0.0150668
714.541	0.0150304
714.619	0.0148393
714.697	0.0147707
714.775	0.0146075
714.853	0.0145763
714.932	0.0144839
715.010	0.0143412
715.088	0.0143166
715.166	0.0140931
715.244	0.0141334
715.322	0.0140749
715.400	0.0139688
715.478	0.0139015
715.557	0.0137733
715.635	0.0136805
715.713	0.0137085
715.791	0.0135433
715.869	0.0134068
715.947	0.0133478
716.025	0.0133979
716.103	0.0131933
716.182	0.0131469
716.260	0.0132067
716.338	0.0131724
716.416	0.0130446
716.494	0.0128957
716.572	0.0131300
716.650	0.0131523
716.728	0.0130820
716.807	0.0131831
716.885	0.0132320
716.963	0.0135179
717.041	0.0135577
717.119	0.0135605
717.197	0.0135837
717.275	0.0138493
717.353	0.0139595
717.432	0.0140628
717.510	0.0142136
717.588	0.0144235
717.666	0.0142254
717.744	0.0146265
717.822	0.0147342
717.900	0.0148036
717.978	0.0148843
718.057	0.0149995
718.135	0.0151662
718.213	0.0150517
718.291	0.0150501
718.369	0.0152244
718.447	0.0152871
718.525	0.0152319
718.603	0.0151046
718.682	0.0150989
718.760	0.0149299
718.838	0.0151629
718.916	0.0149211
718.994	0.0148026
719.072	0.0147122
719.150	0.0145062
719.228	0.0144938
719.307	0.0144943
719.385	0.0144028
719.463	0.0143538
719.541	0.0141841
719.619	0.0140949
719.697	0.0140993
719.775	0.0140108
719.853	0.0139422
719.932	0.0139783
720.010	0.0137035
720.088	0.0137535
720.166	0.0138537
720.244	0.0138705
720.322	0.0138229
720.400	0.0137005
720.478	0.0137107
720.557	0.0136910
720.635	0.0137614
720.713	0.0137500
720.791	0.0137846
720.869	0.0139153
720.947	0.0139293
721.025	0.0137707
721.103	0.0139597
721.182	0.0140382
721.260	0.0140620
721.338	0.0139402
721.416	0.0140668
721.494	0.0141082
721.572	0.0142198
721.650	0.0144340
721.728	0.0143023
721.807	0.0143478
721.885	0.0145856
721.963	0.0143602
722.041	0.0143660
722.119	0.0143079
722.197	0.0143361
722.275	0.0143310
722.353	0.0143262
722.432	0.0142150
722.510	0.0143283
722.588	0.0141666
722.666	0.0141965
722.744	0.0142760
722.822	0.0142193
722.900	0.0141027
722.978	0.0143071
723.057	0.0142342
723.135	0.0143001
723.213	0.0142731
723.291	0.0143136
723.369	0.0143002
723.447	0.0142069
723.525	0.0141687
723.603	0.0140354
723.682	0.0141525
723.760	0.0142151
723.838	0.0139252
723.916	0.0139517
723.994	0.0139769
724.072	0.0139156
724.150	0.0140421
724.228	0.0137678
724.307	0.0137932
724.385	0.0140156
724.463	0.0137807
724.541	0.0138780
724.619	0.0138141
724.697	0.0138367
724.775	0.0137223
724.853	0.0138876
724.932	0.0138731
725.010	0.0138660
725.088	0.0139411
725.166	0.0139545
725.244	0.0140601
725.322	0.0140790
725.400	0.0141634
725.478	0.0142422
725.557	0.0141841
725.635	0.0142200
725.713	0.0142570
725.791	0.0142844
725.869	0.0142299
725.947	0.0144781
726.025	0.0145265
726.103	0.0145029
726.182	0.0145230
726.260	0.0146463
726.338	0.0144796
726.416	0.0146610
726.494	0.0145861
726.572	0.0144967
726.650	0.0145355
726.728	0.0144183
726.807	0.0142721
726.885	0.0142519
726.963	0.0142688
727.041	0.0142583
727.119	0.0141941
727.197	0.0140649
727.275	0.0141335
727.353	0.0139814
727.432	0.0138612
727.510	0.0139405
727.588	0.0139825
727.666	0.0137919
727.744	0.0138342
727.822	0.0137427
727.900	0.0136587
727.978	0.0137833
728.057	0.0138469
728.135	0.0136973
728.213	0.0138548
728.291	0.0139467
728.369	0.0140717
728.447	0.0141718
728.525	0.0142033
728.603	0.0142776
728.682	0.0142564
728.760	0.0145692
728.838	0.0146004
728.916	0.0144884
728.994	0.0145023
729.072	0.0145171
729.150	0.0147519
729.228	0.0147150
729.307	0.0145397
729.385	0.0145376
729.463	0.0144754
729.541	0.0145016
729.619	0.0143806
729.697	0.0143176
729.775	0.0142445
729.853	0.0140204
729.932	0.0139117
730.010	0.0138668
730.088	0.0137392
730.166	0.0137906
730.244	0.0136400
730.322	0.0135935
730.400	0.0134373
730.478	0.0136414
730.557	0.0136075
730.635	0.0134707
730.713	0.0135932
730.791	0.0134441
730.869	0.0134479
730.947	0.0135062
731.025	0.0135519
731.103	0.0136679
731.182	0.0135876
731.260	0.0136840
731.338	0.0137588
731.416	0.0136400
731.494	0.0136007
731.572	0.0138320
731.650	0.0140181
731.728	0.0140379
731.807	0.0141475
731.885	0.0143104
731.963	0.0143073
732.041	0.0144303
732.119	0.0144314
732.197	0.0144140
732.275	0.0145612
732.353	0.0148589
732.432	0.0148167
732.510	0.0148695
732.588	0.0148697
732.666	0.0149420
732.744	0.0148260
732.822	0.0148133
732.900	0.0147679
732.978	0.0147920
733.057	0.0148962
733.135	0.0148888
733.213	0.0150159
733.291	0.0147918
733.369	0.0147690
733.447	0.0146413
733.525	0.0146900
733.603	0.0145386
733.682	0.0145116
733.760	0.0145758
733.838	0.0144856
733.916	0.0144881
733.994	0.0144305
734.072	0.0144102
734.150	0.0142547
734.228	0.0144276
734.307	0.0143299
734.385	0.0142928
734.463	0.0143006
734.541	0.0141135
734.619	0.0141103
734.697	0.0141615
734.775	0.0140409
734.853	0.0141393
734.932	0.0141204
735.010	0.0140588
735.088	0.0140000
735.166	0.0139954
735.244	0.0140138
735.322	0.0139845
735.400	0.0138864
735.478	0.0139178
735.557	0.0139641
735.635	0.0138711
