05/14/2022	19:40:41	Ver.	4.1	UNKNOWN
Optical Delay	650.009681	Delta X		0.078125	Sweeps	1	Scan Rate	0/0
Coordinates	Axis 1	NaN	Axis 2	NaN	Axis 3	NaN	Axis 4	NaN	Axis 5	NaN	Axis 6	0.000000
TX Power	0.000000	RX Power	0.000000

650.010	0.0132614
650.088	0.0132911
650.166	0.0133789
650.244	0.0132423
650.322	0.0132822
650.400	0.0133146
650.478	0.0132391
650.557	0.0133186
650.635	0.0132511
650.713	0.0133511
650.791	0.0133350
650.869	0.0134097
650.947	0.0132675
651.025	0.0133973
651.103	0.0134563
651.182	0.0133350
651.260	0.0133308
651.338	0.0134431
651.416	0.0133580
651.494	0.0133362
651.572	0.0134148
651.650	0.0132960
651.728	0.0132769
651.807	0.0132494
651.885	0.0132277
651.963	0.0131393
652.041	0.0131720
652.119	0.0131649
652.197	0.0130876
652.275	0.0131240
652.353	0.0131931
652.432	0.0131552
652.510	0.0133942
652.588	0.0133057
652.666	0.0133988
652.744	0.0133655
652.822	0.0135323
652.900	0.0136519
652.978	0.0137113
653.057	0.0136642
653.135	0.0137352
653.213	0.0138902
653.291	0.0138113
653.369	0.0140102
653.447	0.0138544
653.525	0.0137222
653.603	0.0136882
653.682	0.0136969
653.760	0.0136109
653.838	0.0135468
653.916	0.0136021
653.994	0.0135374
654.072	0.0133538
654.150	0.0133102
654.228	0.0133588
654.307	0.0134267
654.385	0.0133823
654.463	0.0132203
654.541	0.0132619
654.619	0.0134558
654.697	0.0133805
654.775	0.0133516
654.853	0.0134586
654.932	0.0135116
655.010	0.0135952
655.088	0.0135328
655.166	0.0134718
655.244	0.0137052
655.322	0.0137546
655.400	0.0136509
655.478	0.0137071
655.557	0.0137411
655.635	0.0136721
655.713	0.0136774
655.791	0.0137937
655.869	0.0136183
655.947	0.0137333
656.025	0.0135076
656.103	0.0134021
656.182	0.0134038
656.260	0.0133032
656.338	0.0131832
656.416	0.0132507
656.494	0.0131933
656.572	0.0129991
656.650	0.0127085
656.728	0.0127393
656.807	0.0128117
656.885	0.0126262
656.963	0.0127032
657.041	0.0131192
657.119	0.0128086
657.197	0.0127271
657.275	0.0128896
657.353	0.0130910
657.432	0.0132752
657.510	0.0134077
657.588	0.0135554
657.666	0.0136789
657.744	0.0138762
657.822	0.0140305
657.900	0.0140841
657.978	0.0140260
658.057	0.0141692
658.135	0.0140742
658.213	0.0140974
658.291	0.0141975
658.369	0.0141168
658.447	0.0140495
658.525	0.0139135
658.603	0.0138948
658.682	0.0137119
658.760	0.0134676
658.838	0.0133652
658.916	0.0132955
658.994	0.0130298
659.072	0.0128259
659.150	0.0127859
659.228	0.0126443
659.307	0.0124743
659.385	0.0124060
659.463	0.0121599
659.541	0.0121676
659.619	0.0121043
659.697	0.0120871
659.775	0.0122569
659.853	0.0121132
659.932	0.0122518
660.010	0.0123583
660.088	0.0124443
660.166	0.0127094
660.244	0.0129826
660.322	0.0131201
660.400	0.0131861
660.478	0.0133727
660.557	0.0136140
660.635	0.0138404
660.713	0.0139852
660.791	0.0141966
660.869	0.0143763
660.947	0.0145861
661.025	0.0146468
661.103	0.0146655
661.182	0.0148130
661.260	0.0147842
661.338	0.0149113
661.416	0.0149156
661.494	0.0147906
661.572	0.0146180
661.650	0.0146325
661.728	0.0146009
661.807	0.0144263
661.885	0.0142947
661.963	0.0140093
662.041	0.0140018
662.119	0.0139013
662.197	0.0137402
662.275	0.0136456
662.353	0.0136417
662.432	0.0134239
662.510	0.0132796
662.588	0.0131837
662.666	0.0129724
662.744	0.0127306
662.822	0.0125983
662.900	0.0124565
662.978	0.0121635
663.057	0.0120108
663.135	0.0118796
663.213	0.0117713
663.291	0.0116504
663.369	0.0115063
663.447	0.0114670
663.525	0.0113412
663.603	0.0113567
663.682	0.0112961
663.760	0.0113226
663.838	0.0114583
663.916	0.0116194
663.994	0.0116945
664.072	0.0119753
664.150	0.0122974
664.228	0.0126343
664.307	0.0127766
664.385	0.0132159
664.463	0.0136375
664.541	0.0140488
664.619	0.0144430
664.697	0.0147578
664.775	0.0152290
664.853	0.0157397
664.932	0.0159811
665.010	0.0164158
665.088	0.0165960
665.166	0.0167535
665.244	0.0169284
665.322	0.0170988
665.400	0.0170406
665.478	0.0170141
665.557	0.0168166
665.635	0.0168111
665.713	0.0164989
665.791	0.0162454
665.869	0.0157371
665.947	0.0153493
666.025	0.0149267
666.103	0.0144440
666.182	0.0139694
666.260	0.0133517
666.338	0.0127442
666.416	0.0121978
666.494	0.0118594
666.572	0.0111446
666.650	0.0108117
666.728	0.0102158
666.807	0.00987419
666.885	0.00951012
666.963	0.00937340
667.041	0.00912163
667.119	0.00901016
667.197	0.00896271
667.275	0.00895180
667.353	0.00924278
667.432	0.00931572
667.510	0.00967354
667.588	0.00993576
667.666	0.0103632
667.744	0.0107133
667.822	0.0112257
667.900	0.0117031
667.978	0.0121075
668.057	0.0126806
668.135	0.0129984
668.213	0.0135804
668.291	0.0140170
668.369	0.0144968
668.447	0.0147728
668.525	0.0151705
668.603	0.0153964
668.682	0.0159378
668.760	0.0160725
668.838	0.0164472
668.916	0.0166462
668.994	0.0170167
669.072	0.0171241
669.150	0.0171574
669.228	0.0171609
669.307	0.0171884
669.385	0.0172093
669.463	0.0170850
669.541	0.0168931
669.619	0.0168243
669.697	0.0164536
669.775	0.0162061
669.853	0.0159229
669.932	0.0157554
670.010	0.0153294
670.088	0.0148047
670.166	0.0144427
670.244	0.0141198
670.322	0.0138499
670.400	0.0134177
670.478	0.0130320
670.557	0.0124834
670.635	0.0120937
670.713	0.0116505
670.791	0.0112036
670.869	0.0107920
670.947	0.0103156
671.025	0.00971725
671.103	0.00954155
671.182	0.00907845
671.260	0.00885979
671.338	0.00864357
671.416	0.00861977
671.494	0.00844215
671.572	0.00843765
671.650	0.00860847
671.728	0.00879570
671.807	0.00920547
671.885	0.00928368
671.963	0.00973267
672.041	0.0102399
672.119	0.0107256
672.197	0.0111698
672.275	0.0115625
672.353	0.0123095
672.432	0.0129203
672.510	0.0134267
672.588	0.0141622
672.666	0.0145288
672.744	0.0151302
672.822	0.0156542
672.900	0.0162464
672.978	0.0167231
673.057	0.0172125
673.135	0.0175041
673.213	0.0177916
673.291	0.0179717
673.369	0.0183455
673.447	0.0183969
673.525	0.0184546
673.603	0.0183116
673.682	0.0181760
673.760	0.0179273
673.838	0.0176057
673.916	0.0172923
673.994	0.0168950
674.072	0.0164406
674.150	0.0160085
674.228	0.0154933
674.307	0.0150246
674.385	0.0143933
674.463	0.0140629
674.541	0.0134105
674.619	0.0128648
674.697	0.0126495
674.775	0.0122501
674.853	0.0117275
674.932	0.0113523
675.010	0.0110442
675.088	0.0106288
675.166	0.0104362
675.244	0.0101443
675.322	0.00985069
675.400	0.00969696
675.478	0.00962585
675.557	0.00955132
675.635	0.00952759
675.713	0.00973915
675.791	0.00972328
675.869	0.00985374
675.947	0.0102230
676.025	0.0103522
676.103	0.0107119
676.182	0.0110689
676.260	0.0114090
676.338	0.0117995
676.416	0.0122458
676.494	0.0126112
676.572	0.0128005
676.650	0.0131966
676.728	0.0135174
676.807	0.0138096
676.885	0.0139588
676.963	0.0143996
677.041	0.0145901
677.119	0.0148751
677.197	0.0149098
677.275	0.0151141
677.353	0.0153144
677.432	0.0154203
677.510	0.0154589
677.588	0.0153432
677.666	0.0154353
677.744	0.0153800
677.822	0.0151585
677.900	0.0150410
677.978	0.0150623
678.057	0.0149940
678.135	0.0147939
678.213	0.0145889
678.291	0.0143685
678.369	0.0140768
678.447	0.0139734
678.525	0.0138205
678.603	0.0137035
678.682	0.0135790
678.760	0.0134666
678.838	0.0131555
678.916	0.0130279
678.994	0.0130852
679.072	0.0128999
679.150	0.0126357
679.228	0.0127899
679.307	0.0128058
679.385	0.0128848
679.463	0.0128912
679.541	0.0129451
679.619	0.0130028
679.697	0.0130845
679.775	0.0131217
679.853	0.0131683
679.932	0.0130869
680.010	0.0131994
680.088	0.0130991
680.166	0.0130061
680.244	0.0131584
680.322	0.0131918
680.400	0.0130468
680.478	0.0130173
680.557	0.0129733
680.635	0.0129387
680.713	0.0128897
680.791	0.0130710
680.869	0.0129389
680.947	0.0129315
681.025	0.0129549
681.103	0.0127533
681.182	0.0129050
681.260	0.0128400
681.338	0.0128239
681.416	0.0128135
681.494	0.0128956
681.572	0.0126571
681.650	0.0125945
681.728	0.0126077
681.807	0.0124355
681.885	0.0124031
681.963	0.0124197
682.041	0.0123883
682.119	0.0121912
682.197	0.0120943
682.275	0.0120541
682.353	0.0119927
682.432	0.0117773
682.510	0.0120041
682.588	0.0119839
682.666	0.0119771
682.744	0.0121154
682.822	0.0121907
682.900	0.0123074
682.978	0.0125056
683.057	0.0128220
683.135	0.0129335
683.213	0.0131905
683.291	0.0133318
683.369	0.0136039
683.447	0.0139371
683.525	0.0141409
683.603	0.0144914
683.682	0.0146777
683.760	0.0148405
683.838	0.0151364
683.916	0.0152096
683.994	0.0153761
684.072	0.0155713
684.150	0.0157561
684.228	0.0157098
684.307	0.0159162
684.385	0.0157585
684.463	0.0157426
684.541	0.0156641
684.619	0.0155898
684.697	0.0156251
684.775	0.0154660
684.853	0.0154047
684.932	0.0149194
685.010	0.0148515
685.088	0.0147906
685.166	0.0146320
685.244	0.0143652
685.322	0.0140378
685.400	0.0138799
685.478	0.0138274
685.557	0.0134985
685.635	0.0132150
685.713	0.0130344
685.791	0.0128841
685.869	0.0126430
685.947	0.0126359
686.025	0.0124270
686.103	0.0123120
686.182	0.0120975
686.260	0.0121092
686.338	0.0117760
686.416	0.0117804
686.494	0.0116842
686.572	0.0116424
686.650	0.0114596
686.728	0.0114570
686.807	0.0114122
686.885	0.0114418
686.963	0.0112405
687.041	0.0114092
687.119	0.0113359
687.197	0.0112735
687.275	0.0111532
687.353	0.0112112
687.432	0.0112533
687.510	0.0113908
687.588	0.0112321
687.666	0.0112744
687.744	0.0114860
687.822	0.0115533
687.900	0.0117744
687.978	0.0116319
688.057	0.0118923
688.135	0.0122126
688.213	0.0124861
688.291	0.0127588
688.369	0.0130280
688.447	0.0133564
688.525	0.0136102
688.603	0.0139270
688.682	0.0143890
688.760	0.0147342
688.838	0.0151501
688.916	0.0153618
688.994	0.0158891
689.072	0.0161877
689.150	0.0163689
689.228	0.0165874
689.307	0.0167587
689.385	0.0167387
689.463	0.0167146
689.541	0.0168540
689.619	0.0167572
689.697	0.0165275
689.775	0.0165018
689.853	0.0160999
689.932	0.0159766
690.010	0.0157176
690.088	0.0153799
690.166	0.0150127
690.244	0.0148941
690.322	0.0143607
690.400	0.0140691
690.478	0.0137238
690.557	0.0134704
690.635	0.0130696
690.713	0.0125362
690.791	0.0123463
690.869	0.0119792
690.947	0.0116574
691.025	0.0114690
691.103	0.0112463
691.182	0.0111329
691.260	0.0109416
691.338	0.0108854
691.416	0.0108381
691.494	0.0108665
691.572	0.0108771
691.650	0.0109194
691.728	0.0110101
691.807	0.0112333
691.885	0.0111996
691.963	0.0113034
692.041	0.0112366
692.119	0.0115475
692.197	0.0116981
692.275	0.0118880
692.353	0.0121095
692.432	0.0123436
692.510	0.0124323
692.588	0.0127230
692.666	0.0127732
692.744	0.0131691
692.822	0.0132531
692.900	0.0135245
692.978	0.0136633
693.057	0.0136549
693.135	0.0137465
693.213	0.0139689
693.291	0.0141775
693.369	0.0143013
693.447	0.0141871
693.525	0.0143210
693.603	0.0143481
693.682	0.0144952
693.760	0.0145133
693.838	0.0146176
693.916	0.0147528
693.994	0.0147007
694.072	0.0145496
694.150	0.0147229
694.228	0.0148201
694.307	0.0146429
694.385	0.0146988
694.463	0.0147509
694.541	0.0146471
694.619	0.0145441
694.697	0.0145191
694.775	0.0143093
694.853	0.0141132
694.932	0.0138240
695.010	0.0138938
695.088	0.0135851
695.166	0.0134557
695.244	0.0134046
695.322	0.0132792
695.400	0.0130760
695.478	0.0131279
695.557	0.0131173
695.635	0.0130035
695.713	0.0129102
695.791	0.0130824
695.869	0.0130681
695.947	0.0132065
696.025	0.0133109
696.103	0.0132643
696.182	0.0133097
696.260	0.0135101
696.338	0.0134217
696.416	0.0135559
696.494	0.0136323
696.572	0.0136397
696.650	0.0136834
696.728	0.0135629
696.807	0.0137469
696.885	0.0137641
696.963	0.0137048
697.041	0.0136919
697.119	0.0135445
697.197	0.0136342
697.275	0.0135500
697.353	0.0134108
697.432	0.0133350
697.510	0.0132333
697.588	0.0131651
697.666	0.0130204
697.744	0.0126491
697.822	0.0128121
697.900	0.0127284
697.978	0.0124967
698.057	0.0123920
698.135	0.0122166
698.213	0.0121318
698.291	0.0122661
698.369	0.0123145
698.447	0.0121059
698.525	0.0122438
698.603	0.0123902
698.682	0.0124263
698.760	0.0124054
698.838	0.0126629
698.916	0.0126402
698.994	0.0128078
699.072	0.0130352
699.150	0.0131681
699.228	0.0130212
699.307	0.0131172
699.385	0.0132791
699.463	0.0133412
699.541	0.0133287
699.619	0.0134389
699.697	0.0134647
699.775	0.0136050
699.853	0.0136403
699.932	0.0135833
700.010	0.0138047
700.088	0.0138762
700.166	0.0138254
700.244	0.0139803
700.322	0.0141360
700.400	0.0141595
700.478	0.0140927
700.557	0.0140373
700.635	0.0141031
700.713	0.0142240
700.791	0.0142112
700.869	0.0143506
700.947	0.0144293
701.025	0.0143261
701.103	0.0144027
701.182	0.0145171
701.260	0.0144614
701.338	0.0144136
701.416	0.0144025
701.494	0.0144429
701.572	0.0141451
701.650	0.0141467
701.728	0.0142058
701.807	0.0142326
701.885	0.0138571
701.963	0.0137483
702.041	0.0135789
702.119	0.0133125
702.197	0.0130930
702.275	0.0130049
702.353	0.0129543
702.432	0.0125626
702.510	0.0124855
702.588	0.0124308
702.666	0.0123864
702.744	0.0121566
702.822	0.0121636
702.900	0.0120116
702.978	0.0119772
703.057	0.0119875
703.135	0.0118492
703.213	0.0119983
703.291	0.0120341
703.369	0.0121874
703.447	0.0123035
703.525	0.0124445
703.603	0.0127261
703.682	0.0126888
703.760	0.0129144
703.838	0.0131852
703.916	0.0133443
703.994	0.0135664
704.072	0.0138020
704.150	0.0138363
704.228	0.0140126
704.307	0.0141686
704.385	0.0141433
704.463	0.0142912
704.541	0.0142794
704.619	0.0142249
704.697	0.0142760
704.775	0.0141682
704.853	0.0140272
704.932	0.0139491
705.010	0.0139762
705.088	0.0139203
705.166	0.0136935
705.244	0.0136766
705.322	0.0135802
705.400	0.0135910
705.478	0.0133563
705.557	0.0133321
705.635	0.0130742
705.713	0.0130464
705.791	0.0128844
705.869	0.0127470
705.947	0.0127679
706.025	0.0128279
706.103	0.0126599
706.182	0.0125874
706.260	0.0126380
706.338	0.0125205
706.416	0.0125827
706.494	0.0125838
706.572	0.0126588
706.650	0.0126469
706.728	0.0127888
706.807	0.0129051
706.885	0.0130546
706.963	0.0131543
707.041	0.0132524
707.119	0.0136050
707.197	0.0135587
707.275	0.0137795
707.353	0.0138446
707.432	0.0138123
707.510	0.0140741
707.588	0.0140664
707.666	0.0143825
707.744	0.0145063
707.822	0.0145140
707.900	0.0145753
707.978	0.0146316
708.057	0.0147433
708.135	0.0148714
708.213	0.0148497
708.291	0.0147656
708.369	0.0148668
708.447	0.0148454
708.525	0.0146954
708.603	0.0145375
708.682	0.0145609
708.760	0.0144099
708.838	0.0141939
708.916	0.0140554
708.994	0.0139139
709.072	0.0138335
709.150	0.0134573
709.228	0.0133305
709.307	0.0130979
709.385	0.0129947
709.463	0.0128278
709.541	0.0124778
709.619	0.0124168
709.697	0.0124345
709.775	0.0122232
709.853	0.0121712
709.932	0.0121716
710.010	0.0120623
710.088	0.0121414
710.166	0.0120278
710.244	0.0119431
710.322	0.0120748
710.400	0.0120457
710.478	0.0121008
710.557	0.0121595
710.635	0.0121397
710.713	0.0122440
710.791	0.0123340
710.869	0.0122753
710.947	0.0124691
711.025	0.0125647
711.103	0.0126009
711.182	0.0128194
711.260	0.0129455
711.338	0.0130022
711.416	0.0130650
711.494	0.0130570
711.572	0.0133105
711.650	0.0134769
711.728	0.0137177
711.807	0.0137484
711.885	0.0137086
711.963	0.0138320
712.041	0.0139268
712.119	0.0141410
712.197	0.0142383
712.275	0.0141723
712.353	0.0143272
712.432	0.0144996
712.510	0.0144157
712.588	0.0146525
712.666	0.0148447
712.744	0.0148994
712.822	0.0148473
712.900	0.0149552
712.978	0.0149940
713.057	0.0150458
713.135	0.0149165
713.213	0.0147514
713.291	0.0148935
713.369	0.0148737
713.447	0.0147015
713.525	0.0146250
713.603	0.0145048
713.682	0.0143366
713.760	0.0140894
713.838	0.0139635
713.916	0.0138675
713.994	0.0136261
714.072	0.0135376
714.150	0.0134258
714.228	0.0132741
714.307	0.0131556
714.385	0.0130257
714.463	0.0128367
714.541	0.0127856
714.619	0.0126913
714.697	0.0125551
714.775	0.0124197
714.853	0.0124733
714.932	0.0124268
715.010	0.0123986
715.088	0.0122315
715.166	0.0122304
715.244	0.0121060
715.322	0.0120598
715.400	0.0121555
715.478	0.0122062
715.557	0.0122236
715.635	0.0121967
715.713	0.0121301
715.791	0.0122337
715.869	0.0124232
715.947	0.0124519
716.025	0.0127074
716.103	0.0128117
716.182	0.0128755
716.260	0.0130464
716.338	0.0132304
716.416	0.0134006
716.494	0.0135509
716.572	0.0137248
716.650	0.0139668
716.728	0.0141068
716.807	0.0142065
716.885	0.0143559
716.963	0.0144650
717.041	0.0145434
717.119	0.0146653
717.197	0.0147462
717.275	0.0147395
717.353	0.0147579
717.432	0.0146003
717.510	0.0145560
717.588	0.0145768
717.666	0.0144906
717.744	0.0144983
717.822	0.0143600
717.900	0.0142185
717.978	0.0140608
718.057	0.0140520
718.135	0.0139227
718.213	0.0137606
718.291	0.0135529
718.369	0.0135789
718.447	0.0135083
718.525	0.0134610
718.603	0.0134362
718.682	0.0132452
718.760	0.0132195
718.838	0.0130836
718.916	0.0128774
718.994	0.0129673
719.072	0.0130035
719.150	0.0127966
719.228	0.0128619
719.307	0.0127443
719.385	0.0127205
719.463	0.0126857
719.541	0.0128579
719.619	0.0127781
719.697	0.0128484
719.775	0.0129921
719.853	0.0128479
719.932	0.0129648
720.010	0.0129565
720.088	0.0131007
720.166	0.0130345
720.244	0.0131553
720.322	0.0131691
720.400	0.0132121
720.478	0.0133205
720.557	0.0134899
720.635	0.0133468
720.713	0.0134541
720.791	0.0135150
720.869	0.0132931
720.947	0.0135023
721.025	0.0135136
721.103	0.0134581
721.182	0.0135531
721.260	0.0133917
721.338	0.0134264
721.416	0.0135270
721.494	0.0134213
721.572	0.0133184
721.650	0.0134545
721.728	0.0135179
721.807	0.0134941
721.885	0.0134775
721.963	0.0135236
722.041	0.0135738
722.119	0.0135414
722.197	0.0134787
722.275	0.0136156
722.353	0.0137393
722.432	0.0135525
722.510	0.0135846
722.588	0.0137242
722.666	0.0136220
722.744	0.0135781
722.822	0.0135633
722.900	0.0134698
722.978	0.0135214
723.057	0.0134072
723.135	0.0134000
723.213	0.0133318
723.291	0.0133400
723.369	0.0132549
723.447	0.0132763
723.525	0.0132008
723.603	0.0132038
723.682	0.0133061
723.760	0.0131368
723.838	0.0130819
723.916	0.0131853
723.994	0.0133673
724.072	0.0133245
724.150	0.0132668
724.228	0.0133313
724.307	0.0133125
724.385	0.0133908
724.463	0.0132458
724.541	0.0133974
724.619	0.0134281
724.697	0.0134609
724.775	0.0134602
724.853	0.0135851
724.932	0.0136677
725.010	0.0136835
725.088	0.0137644
725.166	0.0136116
725.244	0.0136777
725.322	0.0138851
725.400	0.0137267
725.478	0.0136658
725.557	0.0136433
725.635	0.0137623
725.713	0.0135603
725.791	0.0135249
725.869	0.0136113
725.947	0.0135387
726.025	0.0133488
726.103	0.0132945
726.182	0.0132880
726.260	0.0133062
726.338	0.0131738
726.416	0.0130597
726.494	0.0131871
726.572	0.0132104
726.650	0.0130351
726.728	0.0131017
726.807	0.0131800
726.885	0.0130731
726.963	0.0130617
727.041	0.0131686
727.119	0.0130961
727.197	0.0131036
727.275	0.0132716
727.353	0.0132097
727.432	0.0132747
727.510	0.0132100
727.588	0.0135413
727.666	0.0133434
727.744	0.0134244
727.822	0.0136566
727.900	0.0135555
727.978	0.0136603
728.057	0.0138393
728.135	0.0138762
728.213	0.0137898
728.291	0.0136325
728.369	0.0137579
728.447	0.0137817
728.525	0.0136315
728.603	0.0135658
728.682	0.0135151
728.760	0.0134726
728.838	0.0133460
728.916	0.0133601
728.994	0.0132510
729.072	0.0132098
729.150	0.0132372
729.228	0.0130866
729.307	0.0131200
729.385	0.0129505
729.463	0.0131325
729.541	0.0129900
729.619	0.0130033
729.697	0.0131586
729.775	0.0129819
729.853	0.0131273
729.932	0.0130618
730.010	0.0130893
730.088	0.0132671
730.166	0.0132771
730.244	0.0131906
730.322	0.0134770
730.400	0.0132844
730.478	0.0133033
730.557	0.0134650
730.635	0.0134416
730.713	0.0136693
730.791	0.0137280
730.869	0.0137091
730.947	0.0137597
731.025	0.0138851
731.103	0.0139505
731.182	0.0137807
731.260	0.0141091
731.338	0.0141949
731.416	0.0140250
731.494	0.0139948
731.572	0.0142331
731.650	0.0141595
731.728	0.0141169
731.807	0.0141171
731.885	0.0140991
731.963	0.0140258
732.041	0.0140244
732.119	0.0138958
732.197	0.0139339
732.275	0.0138831
732.353	0.0137859
732.432	0.0137421
732.510	0.0136777
732.588	0.0135376
732.666	0.0135638
732.744	0.0134449
732.822	0.0132359
732.900	0.0133837
732.978	0.0133397
733.057	0.0132751
733.135	0.0133495
733.213	0.0132496
733.291	0.0131385
733.369	0.0132089
733.447	0.0132735
733.525	0.0132293
733.603	0.0130054
733.682	0.0131078
733.760	0.0131566
733.838	0.0130853
733.916	0.0131245
733.994	0.0132194
734.072	0.0130737
734.150	0.0131631
734.228	0.0132300
734.307	0.0131998
734.385	0.0131139
734.463	0.0131305
734.541	0.0131048
734.619	0.0131699
734.697	0.0131256
734.775	0.0131190
734.853	0.0131618
734.932	0.0131075
735.010	0.0129261
735.088	0.0128347
735.166	0.0129762
735.244	0.0128960
735.322	0.0129562
735.400	0.0129382
735.478	0.0129816
735.557	0.0129585
