05/14/2022	19:41:31	Ver.	4.1	UNKNOWN
Optical Delay	650.009681	Delta X		0.078125	Sweeps	1	Scan Rate	0/0
Coordinates	Axis 1	NaN	Axis 2	NaN	Axis 3	NaN	Axis 4	NaN	Axis 5	NaN	Axis 6	0.000000
TX Power	0.000000	RX Power	0.000000

650.010	0.0140158
650.088	0.0141020
650.166	0.0139942
650.244	0.0140733
650.322	0.0141283
650.400	0.0141371
650.478	0.0141713
650.557	0.0140615
650.635	0.0142931
650.713	0.0140454
650.791	0.0140043
650.869	0.0140179
650.947	0.0140028
651.025	0.0139182
651.103	0.0139186
651.182	0.0138117
651.260	0.0138493
651.338	0.0138051
651.416	0.0139602
651.494	0.0139323
651.572	0.0139241
651.650	0.0139983
651.728	0.0139939
651.807	0.0140262
651.885	0.0140855
651.963	0.0141875
652.041	0.0141879
652.119	0.0143216
652.197	0.0143703
652.275	0.0143712
652.353	0.0144289
652.432	0.0144474
652.510	0.0144898
652.588	0.0143396
652.666	0.0143755
652.744	0.0144116
652.822	0.0142670
652.900	0.0141708
652.978	0.0141172
653.057	0.0142057
653.135	0.0141180
653.213	0.0140092
653.291	0.0138572
653.369	0.0139218
653.447	0.0138700
653.525	0.0138506
653.603	0.0138102
653.682	0.0137490
653.760	0.0139232
653.838	0.0138964
653.916	0.0139096
653.994	0.0137939
654.072	0.0139378
654.150	0.0141141
654.228	0.0140743
654.307	0.0140990
654.385	0.0142213
654.463	0.0141995
654.541	0.0142755
654.619	0.0142413
654.697	0.0141998
654.775	0.0143050
654.853	0.0143409
654.932	0.0142749
655.010	0.0142380
655.088	0.0141571
655.166	0.0141572
655.244	0.0140559
655.322	0.0139298
655.400	0.0139939
655.478	0.0139522
655.557	0.0136875
655.635	0.0137238
655.713	0.0137215
655.791	0.0136633
655.869	0.0134618
655.947	0.0134215
656.025	0.0134431
656.103	0.0133788
656.182	0.0134024
656.260	0.0134417
656.338	0.0136108
656.416	0.0135615
656.494	0.0137090
656.572	0.0137794
656.650	0.0140202
656.728	0.0140504
656.807	0.0143139
656.885	0.0144072
656.963	0.0145450
657.041	0.0147568
657.119	0.0146601
657.197	0.0149186
657.275	0.0148863
657.353	0.0149748
657.432	0.0148977
657.510	0.0146553
657.588	0.0149123
657.666	0.0148455
657.744	0.0146507
657.822	0.0145309
657.900	0.0143472
657.978	0.0140296
658.057	0.0139400
658.135	0.0137642
658.213	0.0135143
658.291	0.0134488
658.369	0.0133353
658.447	0.0130157
658.525	0.0129955
658.603	0.0129562
658.682	0.0128051
658.760	0.0129169
658.838	0.0129048
658.916	0.0126424
658.994	0.0129504
659.072	0.0129559
659.150	0.0130780
659.228	0.0131561
659.307	0.0133670
659.385	0.0133402
659.463	0.0135846
659.541	0.0137332
659.619	0.0139886
659.697	0.0142175
659.775	0.0145589
659.853	0.0146330
659.932	0.0148405
660.010	0.0149983
660.088	0.0150629
660.166	0.0151044
660.244	0.0152253
660.322	0.0152494
660.400	0.0153439
660.478	0.0153916
660.557	0.0152802
660.635	0.0152296
660.713	0.0151469
660.791	0.0151207
660.869	0.0148770
660.947	0.0147301
661.025	0.0146916
661.103	0.0145286
661.182	0.0144696
661.260	0.0142516
661.338	0.0141175
661.416	0.0140594
661.494	0.0141001
661.572	0.0140141
661.650	0.0138501
661.728	0.0137945
661.807	0.0137005
661.885	0.0135144
661.963	0.0133033
662.041	0.0133954
662.119	0.0133812
662.197	0.0131599
662.275	0.0129892
662.353	0.0130204
662.432	0.0129428
662.510	0.0126713
662.588	0.0126780
662.666	0.0125690
662.744	0.0124504
662.822	0.0124979
662.900	0.0124005
662.978	0.0123926
663.057	0.0124760
663.135	0.0125562
663.213	0.0126350
663.291	0.0127769
663.369	0.0129382
663.447	0.0130978
663.525	0.0135307
663.603	0.0136977
663.682	0.0141534
663.760	0.0144085
663.838	0.0148584
663.916	0.0152103
663.994	0.0155718
664.072	0.0160148
664.150	0.0162015
664.228	0.0164252
664.307	0.0168184
664.385	0.0170962
664.463	0.0172425
664.541	0.0173331
664.619	0.0175080
664.697	0.0174643
664.775	0.0173807
664.853	0.0173021
664.932	0.0171976
665.010	0.0167465
665.088	0.0164232
665.166	0.0163159
665.244	0.0159533
665.322	0.0153625
665.400	0.0147279
665.478	0.0143047
665.557	0.0136302
665.635	0.0132735
665.713	0.0125649
665.791	0.0120111
665.869	0.0116137
665.947	0.0109522
666.025	0.0107903
666.103	0.0104074
666.182	0.0101321
666.260	0.00984100
666.338	0.00970245
666.416	0.00971291
666.494	0.00983643
666.572	0.00990288
666.650	0.0100926
666.728	0.0104617
666.807	0.0107078
666.885	0.0110565
666.963	0.0114595
667.041	0.0120575
667.119	0.0124157
667.197	0.0129309
667.275	0.0134501
667.353	0.0138474
667.432	0.0143070
667.510	0.0149180
667.588	0.0153521
667.666	0.0156757
667.744	0.0160585
667.822	0.0164444
667.900	0.0166731
667.978	0.0171106
668.057	0.0174320
668.135	0.0176469
668.213	0.0178700
668.291	0.0178490
668.369	0.0179938
668.447	0.0179237
668.525	0.0179007
668.603	0.0178381
668.682	0.0175298
668.760	0.0172787
668.838	0.0170608
668.916	0.0169080
668.994	0.0164257
669.072	0.0162933
669.150	0.0158633
669.228	0.0155004
669.307	0.0152445
669.385	0.0151162
669.463	0.0146432
669.541	0.0142281
669.619	0.0140354
669.697	0.0137431
669.775	0.0133735
669.853	0.0129362
669.932	0.0126320
670.010	0.0122553
670.088	0.0118649
670.166	0.0115398
670.244	0.0110886
670.322	0.0108072
670.400	0.0104392
670.478	0.0100640
670.557	0.00977768
670.635	0.00972450
670.713	0.00950066
670.791	0.00943993
670.869	0.00953850
670.947	0.00961052
671.025	0.00987144
671.103	0.0101662
671.182	0.0103337
671.260	0.0104700
671.338	0.0109895
671.416	0.0117188
671.494	0.0118940
671.572	0.0123459
671.650	0.0128634
671.728	0.0134667
671.807	0.0139549
671.885	0.0143447
671.963	0.0149539
672.041	0.0155170
672.119	0.0160310
672.197	0.0164355
672.275	0.0169847
672.353	0.0175792
672.432	0.0179529
672.510	0.0184222
672.588	0.0184160
672.666	0.0186041
672.744	0.0187640
672.822	0.0189298
672.900	0.0189129
672.978	0.0188791
673.057	0.0186743
673.135	0.0185604
673.213	0.0183012
673.291	0.0178527
673.369	0.0174965
673.447	0.0172030
673.525	0.0166457
673.603	0.0160487
673.682	0.0155249
673.760	0.0152679
673.838	0.0145947
673.916	0.0141259
673.994	0.0134558
674.072	0.0130559
674.150	0.0125556
674.228	0.0119775
674.307	0.0115838
674.385	0.0113533
674.463	0.0108962
674.541	0.0105965
674.619	0.0103925
674.697	0.0104050
674.775	0.0102289
674.853	0.0100550
674.932	0.0100455
675.010	0.00988464
675.088	0.0101514
675.166	0.0101058
675.244	0.0104887
675.322	0.0106101
675.400	0.0107520
675.478	0.0110764
675.557	0.0113545
675.635	0.0117504
675.713	0.0121390
675.791	0.0125226
675.869	0.0129489
675.947	0.0134758
676.025	0.0138770
676.103	0.0142348
676.182	0.0147793
676.260	0.0151605
676.338	0.0155209
676.416	0.0158554
676.494	0.0162598
676.572	0.0165295
676.650	0.0167299
676.728	0.0167933
676.807	0.0169779
676.885	0.0171030
676.963	0.0170946
677.041	0.0173192
677.119	0.0172247
677.197	0.0171681
677.275	0.0171230
677.353	0.0168622
677.432	0.0167718
677.510	0.0165642
677.588	0.0163200
677.666	0.0160727
677.744	0.0158393
677.822	0.0154092
677.900	0.0150818
677.978	0.0147567
678.057	0.0143660
678.135	0.0142760
678.213	0.0140356
678.291	0.0136563
678.369	0.0134647
678.447	0.0131230
678.525	0.0130400
678.603	0.0127897
678.682	0.0127724
678.760	0.0126959
678.838	0.0124371
678.916	0.0123376
678.994	0.0123090
679.072	0.0123946
679.150	0.0124831
679.228	0.0124420
679.307	0.0125062
679.385	0.0128105
679.463	0.0128178
679.541	0.0129398
679.619	0.0129945
679.697	0.0133220
679.775	0.0134590
679.853	0.0135930
679.932	0.0138261
680.010	0.0137391
680.088	0.0139903
680.166	0.0141649
680.244	0.0142565
680.322	0.0141917
680.400	0.0140580
680.478	0.0141511
680.557	0.0142303
680.635	0.0143231
680.713	0.0142735
680.791	0.0142114
680.869	0.0140725
680.947	0.0140477
681.025	0.0140604
681.103	0.0140739
681.182	0.0139316
681.260	0.0138206
681.338	0.0139331
681.416	0.0136419
681.494	0.0134622
681.572	0.0133533
681.650	0.0132758
681.728	0.0132483
681.807	0.0131715
681.885	0.0131600
681.963	0.0130727
682.041	0.0131942
682.119	0.0131624
682.197	0.0131023
682.275	0.0132611
682.353	0.0132652
682.432	0.0134820
682.510	0.0136558
682.588	0.0137888
682.666	0.0140026
682.744	0.0141453
682.822	0.0143613
682.900	0.0147701
682.978	0.0149615
683.057	0.0151023
683.135	0.0153143
683.213	0.0154148
683.291	0.0156151
683.369	0.0157865
683.447	0.0159978
683.525	0.0160436
683.603	0.0160229
683.682	0.0160839
683.760	0.0162117
683.838	0.0162870
683.916	0.0162566
683.994	0.0159429
684.072	0.0159794
684.150	0.0160238
684.228	0.0158341
684.307	0.0156068
684.385	0.0154259
684.463	0.0152802
684.541	0.0149570
684.619	0.0145929
684.697	0.0144788
684.775	0.0142203
684.853	0.0139265
684.932	0.0135630
685.010	0.0133495
685.088	0.0131012
685.166	0.0128801
685.244	0.0127055
685.322	0.0124300
685.400	0.0124356
685.478	0.0122824
685.557	0.0121194
685.635	0.0121021
685.713	0.0120694
685.791	0.0119952
685.869	0.0120190
685.947	0.0122787
686.025	0.0124020
686.103	0.0123914
686.182	0.0125052
686.260	0.0125828
686.338	0.0128638
686.416	0.0127834
686.494	0.0128519
686.572	0.0129749
686.650	0.0132687
686.728	0.0132964
686.807	0.0132379
686.885	0.0134029
686.963	0.0134706
687.041	0.0137251
687.119	0.0136929
687.197	0.0138082
687.275	0.0140231
687.353	0.0141785
687.432	0.0140989
687.510	0.0141817
687.588	0.0143285
687.666	0.0144501
687.744	0.0145044
687.822	0.0145289
687.900	0.0146069
687.978	0.0146719
688.057	0.0147733
688.135	0.0148549
688.213	0.0151395
688.291	0.0150632
688.369	0.0151799
688.447	0.0152438
688.525	0.0153239
688.603	0.0155394
688.682	0.0155807
688.760	0.0158694
688.838	0.0156475
688.916	0.0159062
688.994	0.0160387
689.072	0.0158881
689.150	0.0160362
689.228	0.0158694
689.307	0.0158788
689.385	0.0157987
689.463	0.0157883
689.541	0.0154670
689.619	0.0152867
689.697	0.0154311
689.775	0.0150750
689.853	0.0148507
689.932	0.0147942
690.010	0.0146140
690.088	0.0143668
690.166	0.0141431
690.244	0.0139821
690.322	0.0137498
690.400	0.0135645
690.478	0.0133331
690.557	0.0132464
690.635	0.0130737
690.713	0.0128107
690.791	0.0126596
690.869	0.0126505
690.947	0.0125458
691.025	0.0123922
691.103	0.0122159
691.182	0.0122135
691.260	0.0121944
691.338	0.0122011
691.416	0.0121480
691.494	0.0120480
691.572	0.0121899
691.650	0.0123345
691.728	0.0122150
691.807	0.0122066
691.885	0.0124379
691.963	0.0126682
692.041	0.0127578
692.119	0.0128137
692.197	0.0127946
692.275	0.0129666
692.353	0.0131315
692.432	0.0133557
692.510	0.0135081
692.588	0.0136184
692.666	0.0139114
692.744	0.0139233
692.822	0.0140029
692.900	0.0142632
692.978	0.0145367
693.057	0.0148230
693.135	0.0147176
693.213	0.0149847
693.291	0.0152163
693.369	0.0153594
693.447	0.0154353
693.525	0.0156270
693.603	0.0154845
693.682	0.0157470
693.760	0.0159631
693.838	0.0160253
693.916	0.0160569
693.994	0.0162257
694.072	0.0161671
694.150	0.0162492
694.228	0.0160328
694.307	0.0160402
694.385	0.0160648
694.463	0.0161116
694.541	0.0158785
694.619	0.0156602
694.697	0.0154176
694.775	0.0152971
694.853	0.0150082
694.932	0.0147264
695.010	0.0142924
695.088	0.0142079
695.166	0.0138168
695.244	0.0134065
695.322	0.0131129
695.400	0.0130830
695.478	0.0128465
695.557	0.0125998
695.635	0.0124408
695.713	0.0124403
695.791	0.0122081
695.869	0.0123567
695.947	0.0122716
696.025	0.0123341
696.103	0.0125146
696.182	0.0125923
696.260	0.0129015
696.338	0.0130439
696.416	0.0132428
696.494	0.0134314
696.572	0.0137090
696.650	0.0139076
696.728	0.0141604
696.807	0.0144955
696.885	0.0146031
696.963	0.0147161
697.041	0.0148505
697.119	0.0151817
697.197	0.0151130
697.275	0.0151078
697.353	0.0149976
697.432	0.0149270
697.510	0.0148612
697.588	0.0147845
697.666	0.0147197
697.744	0.0144207
697.822	0.0142154
697.900	0.0141155
697.978	0.0137228
698.057	0.0136294
698.135	0.0134681
698.213	0.0133063
698.291	0.0131557
698.369	0.0130589
698.447	0.0130473
698.525	0.0128876
698.603	0.0129091
698.682	0.0129230
698.760	0.0129607
698.838	0.0131261
698.916	0.0131548
698.994	0.0134206
699.072	0.0134412
699.150	0.0136076
699.228	0.0139628
699.307	0.0140594
699.385	0.0141423
699.463	0.0143853
699.541	0.0146055
699.619	0.0146317
699.697	0.0149644
699.775	0.0150339
699.853	0.0153039
699.932	0.0153352
700.010	0.0154040
700.088	0.0152515
700.166	0.0153614
700.244	0.0155102
700.322	0.0154356
700.400	0.0152645
700.478	0.0153573
700.557	0.0152287
700.635	0.0150600
700.713	0.0150093
700.791	0.0148312
700.869	0.0147256
700.947	0.0148255
701.025	0.0146084
701.103	0.0146120
701.182	0.0145004
701.260	0.0143104
701.338	0.0143833
701.416	0.0142650
701.494	0.0143449
701.572	0.0142927
701.650	0.0141075
701.728	0.0140755
701.807	0.0140858
701.885	0.0140021
701.963	0.0138945
702.041	0.0137870
702.119	0.0138726
702.197	0.0138635
702.275	0.0136911
702.353	0.0135208
702.432	0.0135555
702.510	0.0135570
702.588	0.0133268
702.666	0.0133025
702.744	0.0133447
702.822	0.0132081
702.900	0.0130885
702.978	0.0129133
703.057	0.0128632
703.135	0.0130657
703.213	0.0129033
703.291	0.0127834
703.369	0.0128141
703.447	0.0131581
703.525	0.0129224
703.603	0.0129781
703.682	0.0131606
703.760	0.0132599
703.838	0.0132697
703.916	0.0134340
703.994	0.0136313
704.072	0.0137646
704.150	0.0139255
704.228	0.0141032
704.307	0.0142757
704.385	0.0144196
704.463	0.0142659
704.541	0.0145845
704.619	0.0146039
704.697	0.0149017
704.775	0.0147617
704.853	0.0147446
704.932	0.0150305
705.010	0.0150143
705.088	0.0149994
705.166	0.0150499
705.244	0.0150694
705.322	0.0149725
705.400	0.0149343
705.478	0.0150022
705.557	0.0149679
705.635	0.0148342
705.713	0.0147135
705.791	0.0147491
705.869	0.0146407
705.947	0.0144666
706.025	0.0143361
706.103	0.0141292
706.182	0.0142302
706.260	0.0140205
706.338	0.0139095
706.416	0.0138083
706.494	0.0137623
706.572	0.0137988
706.650	0.0137764
706.728	0.0138217
706.807	0.0137450
706.885	0.0139494
706.963	0.0138808
707.041	0.0138744
707.119	0.0139554
707.197	0.0140393
707.275	0.0142130
707.353	0.0141451
707.432	0.0141490
707.510	0.0141755
707.588	0.0143095
707.666	0.0144623
707.744	0.0144685
707.822	0.0145661
707.900	0.0146365
707.978	0.0147471
708.057	0.0147746
708.135	0.0148976
708.213	0.0148151
708.291	0.0147286
708.369	0.0146673
708.447	0.0148734
708.525	0.0146819
708.603	0.0146899
708.682	0.0146744
708.760	0.0144991
708.838	0.0146345
708.916	0.0143963
708.994	0.0143680
709.072	0.0144231
709.150	0.0143533
709.228	0.0140832
709.307	0.0140741
709.385	0.0142094
709.463	0.0139716
709.541	0.0139273
709.619	0.0139291
709.697	0.0137509
709.775	0.0138130
709.853	0.0138629
709.932	0.0139137
710.010	0.0136402
710.088	0.0137019
710.166	0.0135275
710.244	0.0136030
710.322	0.0135486
710.400	0.0133098
710.478	0.0133268
710.557	0.0132812
710.635	0.0131895
710.713	0.0131777
710.791	0.0131187
710.869	0.0129878
710.947	0.0129829
711.025	0.0129950
711.103	0.0130110
711.182	0.0130115
711.260	0.0129961
711.338	0.0131378
711.416	0.0131577
711.494	0.0132568
711.572	0.0133127
711.650	0.0135145
711.728	0.0137068
711.807	0.0139993
711.885	0.0140466
711.963	0.0141935
712.041	0.0145831
712.119	0.0146817
712.197	0.0148463
712.275	0.0149905
712.353	0.0151164
712.432	0.0152068
712.510	0.0154794
712.588	0.0157328
712.666	0.0156676
712.744	0.0157732
712.822	0.0158495
712.900	0.0157349
712.978	0.0158582
713.057	0.0158206
713.135	0.0157708
713.213	0.0158561
713.291	0.0157525
713.369	0.0154943
713.447	0.0154396
713.525	0.0152196
713.603	0.0149969
713.682	0.0148347
713.760	0.0146727
713.838	0.0143772
713.916	0.0142598
713.994	0.0140977
714.072	0.0138940
714.150	0.0136269
714.228	0.0134654
714.307	0.0133425
714.385	0.0130189
714.463	0.0128139
714.541	0.0127995
714.619	0.0125718
714.697	0.0123782
714.775	0.0122511
714.853	0.0122349
714.932	0.0122475
715.010	0.0119566
715.088	0.0119328
715.166	0.0121463
715.244	0.0120919
715.322	0.0123022
715.400	0.0122057
715.478	0.0124142
715.557	0.0125718
715.635	0.0127568
715.713	0.0129590
715.791	0.0130978
715.869	0.0131683
715.947	0.0134518
716.025	0.0135565
716.103	0.0138441
716.182	0.0139948
716.260	0.0141773
716.338	0.0143696
716.416	0.0144918
716.494	0.0145289
716.572	0.0145771
716.650	0.0146245
716.728	0.0148305
716.807	0.0150844
716.885	0.0149503
716.963	0.0150032
717.041	0.0151691
717.119	0.0152818
717.197	0.0154260
717.275	0.0152489
717.353	0.0153265
717.432	0.0154589
717.510	0.0155440
717.588	0.0155296
717.666	0.0153934
717.744	0.0154494
717.822	0.0152091
717.900	0.0151913
717.978	0.0151456
718.057	0.0151633
718.135	0.0153188
718.213	0.0150769
718.291	0.0150400
718.369	0.0147761
718.447	0.0146471
718.525	0.0147777
718.603	0.0147574
718.682	0.0145756
718.760	0.0143775
718.838	0.0144249
718.916	0.0142788
718.994	0.0142103
719.072	0.0141828
719.150	0.0140934
719.228	0.0139340
719.307	0.0138396
719.385	0.0138360
719.463	0.0136185
719.541	0.0136406
719.619	0.0134297
719.697	0.0133994
719.775	0.0132983
719.853	0.0131360
719.932	0.0131364
720.010	0.0131599
720.088	0.0129906
720.166	0.0129581
720.244	0.0129787
720.322	0.0130518
720.400	0.0131264
720.478	0.0132928
720.557	0.0132517
720.635	0.0133334
720.713	0.0133855
720.791	0.0134464
720.869	0.0135266
720.947	0.0137973
721.025	0.0139606
721.103	0.0139160
721.182	0.0139570
721.260	0.0140754
721.338	0.0143360
721.416	0.0142667
721.494	0.0144549
721.572	0.0145844
721.650	0.0146593
721.728	0.0145261
721.807	0.0146375
721.885	0.0146360
721.963	0.0146188
722.041	0.0146417
722.119	0.0146738
722.197	0.0146272
722.275	0.0146537
722.353	0.0145618
722.432	0.0147634
722.510	0.0146883
722.588	0.0146349
722.666	0.0145890
722.744	0.0147141
722.822	0.0146180
722.900	0.0145779
722.978	0.0144601
723.057	0.0147105
723.135	0.0145242
723.213	0.0144395
723.291	0.0146387
723.369	0.0145716
723.447	0.0144906
723.525	0.0144733
723.603	0.0144984
723.682	0.0142903
723.760	0.0143399
723.838	0.0143084
723.916	0.0143040
723.994	0.0143114
724.072	0.0142546
724.150	0.0141751
724.228	0.0140993
724.307	0.0140548
724.385	0.0140630
724.463	0.0141545
724.541	0.0141437
724.619	0.0140590
724.697	0.0139961
724.775	0.0139883
724.853	0.0138495
724.932	0.0137786
725.010	0.0139227
725.088	0.0136246
725.166	0.0137482
725.244	0.0137113
725.322	0.0136606
725.400	0.0136731
725.478	0.0137096
725.557	0.0137293
725.635	0.0136897
725.713	0.0137925
725.791	0.0140010
725.869	0.0139581
725.947	0.0140173
726.025	0.0140785
726.103	0.0141034
726.182	0.0141573
726.260	0.0141767
726.338	0.0140311
726.416	0.0140563
726.494	0.0141164
726.572	0.0140185
726.650	0.0139789
726.728	0.0140210
726.807	0.0138050
726.885	0.0139001
726.963	0.0138011
727.041	0.0138010
727.119	0.0139088
727.197	0.0138992
727.275	0.0137935
727.353	0.0139251
727.432	0.0139222
727.510	0.0139441
727.588	0.0141479
727.666	0.0140726
727.744	0.0141708
727.822	0.0143201
727.900	0.0142361
727.978	0.0143552
728.057	0.0142797
728.135	0.0144333
728.213	0.0143919
728.291	0.0144145
728.369	0.0144540
728.447	0.0143571
728.525	0.0144748
728.603	0.0144273
728.682	0.0144528
728.760	0.0144810
728.838	0.0143864
728.916	0.0144630
728.994	0.0145776
729.072	0.0143156
729.150	0.0144450
729.228	0.0143189
729.307	0.0143797
729.385	0.0141865
729.463	0.0141199
729.541	0.0141269
729.619	0.0142239
729.697	0.0140619
729.775	0.0140559
729.853	0.0140526
729.932	0.0138561
730.010	0.0138436
730.088	0.0137766
730.166	0.0138205
730.244	0.0138255
730.322	0.0138155
730.400	0.0137218
730.478	0.0136885
730.557	0.0139171
730.635	0.0137379
730.713	0.0139130
730.791	0.0137959
730.869	0.0138575
730.947	0.0139073
731.025	0.0140708
731.103	0.0141196
731.182	0.0140720
731.260	0.0141408
731.338	0.0141192
731.416	0.0142513
731.494	0.0142804
731.572	0.0143466
731.650	0.0143593
731.728	0.0142981
731.807	0.0143813
731.885	0.0142900
731.963	0.0141337
732.041	0.0142789
732.119	0.0141744
732.197	0.0142027
732.275	0.0142178
732.353	0.0140181
732.432	0.0141642
732.510	0.0140677
732.588	0.0138461
732.666	0.0137916
732.744	0.0139601
732.822	0.0138551
732.900	0.0138789
732.978	0.0137082
733.057	0.0138184
733.135	0.0136163
733.213	0.0136872
733.291	0.0138071
733.369	0.0138024
733.447	0.0136536
733.525	0.0138359
733.603	0.0137604
733.682	0.0137634
733.760	0.0137759
733.838	0.0139627
733.916	0.0138764
733.994	0.0140038
734.072	0.0141201
734.150	0.0139513
734.228	0.0139522
734.307	0.0139322
734.385	0.0140466
734.463	0.0140842
734.541	0.0141702
734.619	0.0140712
734.697	0.0139395
734.775	0.0140216
734.853	0.0141465
734.932	0.0141354
735.010	0.0141380
735.088	0.0143111
735.166	0.0141771
735.244	0.0143002
735.322	0.0142462
735.400	0.0140366
735.478	0.0141355
735.557	0.0142983
735.635	0.0142528
735.713	0.0142426
