05/14/2022	19:05:19	Ver.	4.1	UNKNOWN
Optical Delay	650.016352	Delta X		0.078125	Sweeps	1	Scan Rate	0/0
Coordinates	Axis 1	NaN	Axis 2	NaN	Axis 3	NaN	Axis 4	NaN	Axis 5	NaN	Axis 6	0.000000
TX Power	0.000000	RX Power	0.000000

650.016	0.0146002
650.094	0.0144405
650.173	0.0145172
650.251	0.0146071
650.329	0.0145673
650.407	0.0145971
650.485	0.0146143
650.563	0.0146465
650.641	0.0145381
650.719	0.0144605
650.798	0.0145317
650.876	0.0146496
650.954	0.0145808
651.032	0.0146575
651.110	0.0146114
651.188	0.0145181
651.266	0.0145513
651.344	0.0145736
651.423	0.0145653
651.501	0.0145424
651.579	0.0145084
651.657	0.0145952
651.735	0.0145831
651.813	0.0145588
651.891	0.0146415
651.969	0.0145149
652.048	0.0145409
652.126	0.0145511
652.204	0.0145675
652.282	0.0145017
652.360	0.0146435
652.438	0.0145549
652.516	0.0145841
652.594	0.0146706
652.673	0.0145766
652.751	0.0145852
652.829	0.0146535
652.907	0.0145881
652.985	0.0147044
653.063	0.0145599
653.141	0.0145485
653.219	0.0146597
653.298	0.0146584
653.376	0.0146865
653.454	0.0145403
653.532	0.0146811
653.610	0.0145567
653.688	0.0146867
653.766	0.0146028
653.844	0.0146015
653.923	0.0144724
654.001	0.0146117
654.079	0.0145462
654.157	0.0145929
654.235	0.0146387
654.313	0.0146413
654.391	0.0144915
654.469	0.0146687
654.548	0.0147786
654.626	0.0146190
654.704	0.0145872
654.782	0.0146961
654.860	0.0144789
654.938	0.0146064
655.016	0.0145448
655.094	0.0145853
655.173	0.0146507
655.251	0.0146001
655.329	0.0145076
655.407	0.0145989
655.485	0.0145210
655.563	0.0145061
655.641	0.0146014
655.719	0.0146672
655.798	0.0146802
655.876	0.0145026
655.954	0.0145353
656.032	0.0146556
656.110	0.0146750
656.188	0.0143883
656.266	0.0144264
656.344	0.0145686
656.423	0.0146819
656.501	0.0145778
656.579	0.0146109
656.657	0.0145311
656.735	0.0145162
656.813	0.0145641
656.891	0.0146301
656.969	0.0145583
657.048	0.0145383
657.126	0.0146577
657.204	0.0145315
657.282	0.0145080
657.360	0.0146142
657.438	0.0146411
657.516	0.0146571
657.594	0.0145745
657.673	0.0146474
657.751	0.0146274
657.829	0.0145683
657.907	0.0145602
657.985	0.0145574
658.063	0.0145723
658.141	0.0146976
658.219	0.0146819
658.298	0.0146590
658.376	0.0145690
658.454	0.0145754
658.532	0.0146903
658.610	0.0145679
658.688	0.0146094
658.766	0.0145737
658.844	0.0147468
658.923	0.0146568
659.001	0.0144583
659.079	0.0146485
659.157	0.0146348
659.235	0.0145399
659.313	0.0146667
659.391	0.0146120
659.469	0.0146829
659.548	0.0146413
659.626	0.0145799
659.704	0.0145480
659.782	0.0146735
659.860	0.0145900
659.938	0.0145673
660.016	0.0146349
660.094	0.0145443
660.173	0.0145351
660.251	0.0145597
660.329	0.0146478
660.407	0.0146017
660.485	0.0145853
660.563	0.0144111
660.641	0.0147092
660.719	0.0146130
660.798	0.0146204
660.876	0.0147932
660.954	0.0146028
661.032	0.0145119
661.110	0.0146783
661.188	0.0145353
661.266	0.0146181
661.344	0.0145882
661.423	0.0145947
661.501	0.0145483
661.579	0.0145547
661.657	0.0145941
661.735	0.0145965
661.813	0.0146347
661.891	0.0147501
661.969	0.0145356
662.048	0.0147199
662.126	0.0146294
662.204	0.0145570
662.282	0.0146307
662.360	0.0146524
662.438	0.0145270
662.516	0.0146432
662.594	0.0146472
662.673	0.0145685
662.751	0.0144540
662.829	0.0145866
662.907	0.0146468
662.985	0.0146161
663.063	0.0145588
663.141	0.0146565
663.219	0.0146156
663.298	0.0145297
663.376	0.0144165
663.454	0.0145782
663.532	0.0146961
663.610	0.0146536
663.688	0.0146074
663.766	0.0145307
663.844	0.0146976
663.923	0.0146972
664.001	0.0145646
664.079	0.0144884
664.157	0.0146622
664.235	0.0145563
664.313	0.0145507
664.391	0.0145316
664.469	0.0146044
664.548	0.0146664
664.626	0.0146555
664.704	0.0147179
664.782	0.0145183
664.860	0.0146645
664.938	0.0145188
665.016	0.0145126
665.094	0.0146170
665.173	0.0146638
665.251	0.0146197
665.329	0.0144859
665.407	0.0145576
665.485	0.0146802
665.563	0.0145335
665.641	0.0146696
665.719	0.0145074
665.798	0.0145921
665.876	0.0147260
665.954	0.0145147
666.032	0.0145439
666.110	0.0145074
666.188	0.0146476
666.266	0.0146595
666.344	0.0146243
666.423	0.0147173
666.501	0.0145639
666.579	0.0145287
666.657	0.0145798
666.735	0.0146147
666.813	0.0146130
666.891	0.0146111
666.969	0.0144786
667.048	0.0146699
667.126	0.0145209
667.204	0.0147218
667.282	0.0146988
667.360	0.0144822
667.438	0.0146999
667.516	0.0146477
667.594	0.0146627
667.673	0.0145523
667.751	0.0146214
667.829	0.0146277
667.907	0.0145331
667.985	0.0145526
668.063	0.0145467
668.141	0.0145789
668.219	0.0146159
668.298	0.0145985
668.376	0.0145833
668.454	0.0145003
668.532	0.0144984
668.610	0.0145308
668.688	0.0145509
668.766	0.0145781
668.844	0.0145708
668.923	0.0147031
669.001	0.0145883
669.079	0.0145347
669.157	0.0146622
669.235	0.0146741
669.313	0.0145320
669.391	0.0146918
669.469	0.0147082
669.548	0.0145368
669.626	0.0145950
669.704	0.0145973
669.782	0.0146674
669.860	0.0145956
669.938	0.0144443
670.016	0.0146345
670.094	0.0146389
670.173	0.0144727
670.251	0.0146818
670.329	0.0146690
670.407	0.0145537
670.485	0.0146185
670.563	0.0145980
670.641	0.0146885
670.719	0.0146026
670.798	0.0145972
670.876	0.0145959
670.954	0.0145796
671.032	0.0144789
671.110	0.0144839
671.188	0.0144623
671.266	0.0146059
671.344	0.0146457
671.423	0.0145504
671.501	0.0146023
671.579	0.0145580
671.657	0.0146054
671.735	0.0146117
671.813	0.0145747
671.891	0.0145659
671.969	0.0146381
672.048	0.0145875
672.126	0.0147324
672.204	0.0146255
672.282	0.0144998
672.360	0.0145103
672.438	0.0146623
672.516	0.0146282
672.594	0.0145953
672.673	0.0146711
672.751	0.0146629
672.829	0.0146039
672.907	0.0146293
672.985	0.0145953
673.063	0.0146990
673.141	0.0146466
673.219	0.0146775
673.298	0.0145113
673.376	0.0146394
673.454	0.0144933
673.532	0.0145454
673.610	0.0145633
673.688	0.0145592
673.766	0.0146218
673.844	0.0145679
673.923	0.0145365
674.001	0.0146968
674.079	0.0146142
674.157	0.0146104
674.235	0.0146005
674.313	0.0146146
674.391	0.0146018
674.469	0.0146281
674.548	0.0145245
674.626	0.0145821
674.704	0.0145369
674.782	0.0145776
674.860	0.0144609
674.938	0.0146614
675.016	0.0144560
675.094	0.0145506
675.173	0.0145541
675.251	0.0145321
675.329	0.0145802
675.407	0.0147240
675.485	0.0144550
675.563	0.0145265
675.641	0.0146217
675.719	0.0146163
675.798	0.0144126
675.876	0.0145799
675.954	0.0144936
676.032	0.0144738
676.110	0.0144569
676.188	0.0145399
676.266	0.0145763
676.344	0.0145695
676.423	0.0145628
676.501	0.0145353
676.579	0.0144395
676.657	0.0143981
676.735	0.0145237
676.813	0.0145307
676.891	0.0145109
676.969	0.0144175
677.048	0.0144256
677.126	0.0144470
677.204	0.0144830
677.282	0.0144061
677.360	0.0144219
677.438	0.0144995
677.516	0.0144964
677.594	0.0143903
677.673	0.0144086
677.751	0.0144931
677.829	0.0144939
677.907	0.0144384
677.985	0.0145021
678.063	0.0145439
678.141	0.0145605
678.219	0.0144836
678.298	0.0145797
678.376	0.0145325
678.454	0.0143511
678.532	0.0145458
678.610	0.0145559
678.688	0.0145100
678.766	0.0145774
678.844	0.0145248
678.923	0.0146487
679.001	0.0144516
679.079	0.0144301
679.157	0.0144667
679.235	0.0144844
679.313	0.0146925
679.391	0.0145404
679.469	0.0145124
679.548	0.0144830
679.626	0.0146326
679.704	0.0145732
679.782	0.0146033
679.860	0.0145736
679.938	0.0145525
680.016	0.0144819
680.094	0.0144588
680.173	0.0144916
680.251	0.0146444
680.329	0.0145246
680.407	0.0145741
680.485	0.0145598
680.563	0.0145169
680.641	0.0146207
680.719	0.0145741
680.798	0.0144830
680.876	0.0146045
680.954	0.0143793
681.032	0.0146858
681.110	0.0145407
681.188	0.0145392
681.266	0.0145688
681.344	0.0145832
681.423	0.0144538
681.501	0.0146846
681.579	0.0145746
681.657	0.0145428
681.735	0.0147440
681.813	0.0146196
681.891	0.0146860
681.969	0.0146915
682.048	0.0146561
682.126	0.0146343
682.204	0.0146730
682.282	0.0147047
682.360	0.0147001
682.438	0.0145995
682.516	0.0147384
682.594	0.0147799
682.673	0.0146798
682.751	0.0146111
682.829	0.0147162
682.907	0.0147060
682.985	0.0147442
683.063	0.0148025
683.141	0.0146809
683.219	0.0146661
683.298	0.0147286
683.376	0.0146485
683.454	0.0147633
683.532	0.0147614
683.610	0.0147188
683.688	0.0146783
683.766	0.0146699
683.844	0.0149064
683.923	0.0148406
684.001	0.0146765
684.079	0.0145518
684.157	0.0146198
684.235	0.0147398
684.313	0.0147443
684.391	0.0147649
684.469	0.0146838
684.548	0.0146655
684.626	0.0146671
684.704	0.0147084
684.782	0.0147380
684.860	0.0146450
684.938	0.0146287
685.016	0.0146643
685.094	0.0146019
685.173	0.0146635
685.251	0.0147205
685.329	0.0146507
685.407	0.0147063
685.485	0.0145685
685.563	0.0146169
685.641	0.0146387
685.719	0.0147158
685.798	0.0146648
685.876	0.0147652
685.954	0.0145676
686.032	0.0146609
686.110	0.0147164
686.188	0.0146148
686.266	0.0146958
686.344	0.0147033
686.423	0.0146040
686.501	0.0145463
686.579	0.0146674
686.657	0.0147398
686.735	0.0146973
686.813	0.0147118
686.891	0.0145348
686.969	0.0146368
687.048	0.0144675
687.126	0.0145980
687.204	0.0145454
687.282	0.0145014
687.360	0.0145648
687.438	0.0145824
687.516	0.0146840
687.594	0.0146147
687.673	0.0145165
687.751	0.0145979
687.829	0.0146085
687.907	0.0145561
687.985	0.0145490
688.063	0.0146330
688.141	0.0145516
688.219	0.0145864
688.298	0.0144058
688.376	0.0145912
688.454	0.0146505
688.532	0.0146128
688.610	0.0145735
688.688	0.0144814
688.766	0.0145729
688.844	0.0145988
688.923	0.0146599
689.001	0.0146620
689.079	0.0145421
689.157	0.0145626
689.235	0.0146011
689.313	0.0145742
689.391	0.0145627
689.469	0.0145036
689.548	0.0146175
689.626	0.0147066
689.704	0.0146957
689.782	0.0145323
689.860	0.0146924
689.938	0.0145868
690.016	0.0145728
690.094	0.0146064
690.173	0.0145098
690.251	0.0144086
690.329	0.0146625
690.407	0.0146006
690.485	0.0146696
690.563	0.0147110
690.641	0.0144915
690.719	0.0145203
690.798	0.0145688
690.876	0.0145329
690.954	0.0145464
691.032	0.0146700
691.110	0.0146583
691.188	0.0146415
691.266	0.0146948
691.344	0.0147263
691.423	0.0148401
691.501	0.0146817
691.579	0.0146627
691.657	0.0146185
691.735	0.0145078
691.813	0.0144715
691.891	0.0143987
691.969	0.0143713
692.048	0.0143891
692.126	0.0143095
692.204	0.0144769
692.282	0.0144093
692.360	0.0144928
692.438	0.0146146
692.516	0.0146614
692.594	0.0147230
692.673	0.0148911
692.751	0.0148798
692.829	0.0148956
692.907	0.0149136
692.985	0.0149982
693.063	0.0148508
693.141	0.0148606
693.219	0.0148161
693.298	0.0146814
693.376	0.0147361
693.454	0.0146941
693.532	0.0145327
693.610	0.0143201
693.688	0.0142843
693.766	0.0143424
693.844	0.0142676
693.923	0.0142951
694.001	0.0142032
694.079	0.0141862
694.157	0.0142708
694.235	0.0143243
694.313	0.0145016
694.391	0.0146088
694.469	0.0146767
694.548	0.0147324
694.626	0.0146935
694.704	0.0147800
694.782	0.0150067
694.860	0.0149451
694.938	0.0149601
695.016	0.0149100
695.094	0.0150977
695.173	0.0149086
695.251	0.0149999
695.329	0.0151925
695.407	0.0151272
695.485	0.0150695
695.563	0.0149479
695.641	0.0150089
695.719	0.0148320
695.798	0.0147326
695.876	0.0144283
695.954	0.0144439
696.032	0.0144853
696.110	0.0142705
696.188	0.0141414
696.266	0.0141192
696.344	0.0140388
696.423	0.0139688
696.501	0.0138945
696.579	0.0139114
696.657	0.0138669
696.735	0.0139686
696.813	0.0139736
696.891	0.0141814
696.969	0.0142618
697.048	0.0142442
697.126	0.0145319
697.204	0.0146510
697.282	0.0146426
697.360	0.0147663
697.438	0.0149643
697.516	0.0150491
697.594	0.0152077
697.673	0.0152854
697.751	0.0152777
697.829	0.0153578
697.907	0.0153547
697.985	0.0153155
698.063	0.0151437
698.141	0.0152554
698.219	0.0150360
698.298	0.0149703
698.376	0.0149079
698.454	0.0147839
698.532	0.0147613
698.610	0.0145886
698.688	0.0143697
698.766	0.0143576
698.844	0.0142604
698.923	0.0141609
699.001	0.0140834
699.079	0.0139766
699.157	0.0139785
699.235	0.0139623
699.313	0.0139904
699.391	0.0138412
699.469	0.0138552
699.548	0.0140215
699.626	0.0139229
699.704	0.0139875
699.782	0.0140459
699.860	0.0142204
699.938	0.0143002
700.016	0.0141860
700.094	0.0143077
700.173	0.0144794
700.251	0.0146082
700.329	0.0146686
700.407	0.0146758
700.485	0.0147324
700.563	0.0148181
700.641	0.0148340
700.719	0.0149454
700.798	0.0148956
700.876	0.0151138
700.954	0.0152112
701.032	0.0151576
701.110	0.0151566
701.188	0.0151991
701.266	0.0151458
701.344	0.0151025
701.423	0.0153100
701.501	0.0152383
701.579	0.0150147
701.657	0.0150742
701.735	0.0149747
701.813	0.0150062
701.891	0.0149635
701.969	0.0147394
702.048	0.0146809
702.126	0.0146630
702.204	0.0145267
702.282	0.0143749
702.360	0.0142493
702.438	0.0140606
702.516	0.0141680
702.594	0.0139933
702.673	0.0138808
702.751	0.0139686
702.829	0.0136864
702.907	0.0136961
702.985	0.0137311
703.063	0.0137370
703.141	0.0137090
703.219	0.0138758
703.298	0.0138332
703.376	0.0138885
703.454	0.0140580
703.532	0.0140578
703.610	0.0141977
703.688	0.0143501
703.766	0.0143561
703.844	0.0145684
703.923	0.0146046
704.001	0.0147169
704.079	0.0148727
704.157	0.0148181
704.235	0.0150307
704.313	0.0150208
704.391	0.0151064
704.469	0.0150821
704.548	0.0151340
704.626	0.0151266
704.704	0.0151295
704.782	0.0151173
704.860	0.0151235
704.938	0.0151235
705.016	0.0152029
705.094	0.0151601
705.173	0.0150896
705.251	0.0151381
705.329	0.0149490
705.407	0.0149480
705.485	0.0150159
705.563	0.0149881
705.641	0.0148551
705.719	0.0145418
705.798	0.0145211
705.876	0.0146124
705.954	0.0144506
706.032	0.0142852
706.110	0.0143363
706.188	0.0143229
706.266	0.0142933
706.344	0.0142509
706.423	0.0142242
706.501	0.0140662
706.579	0.0140969
706.657	0.0142258
706.735	0.0141750
706.813	0.0139661
706.891	0.0139581
706.969	0.0140932
707.048	0.0141654
707.126	0.0141375
707.204	0.0140456
707.282	0.0140771
707.360	0.0141277
707.438	0.0142350
707.516	0.0142168
707.594	0.0143780
707.673	0.0143675
707.751	0.0145715
707.829	0.0146841
707.907	0.0147785
707.985	0.0147511
708.063	0.0147626
708.141	0.0149120
708.219	0.0149460
708.298	0.0150201
708.376	0.0150691
708.454	0.0150634
708.532	0.0151159
708.610	0.0150990
708.688	0.0151211
708.766	0.0152020
708.844	0.0149741
708.923	0.0149751
709.001	0.0150352
709.079	0.0149794
709.157	0.0149963
709.235	0.0148744
709.313	0.0148512
709.391	0.0147512
709.469	0.0147868
709.548	0.0147807
709.626	0.0147333
709.704	0.0147035
709.782	0.0146262
709.860	0.0147567
709.938	0.0146543
710.016	0.0146226
710.094	0.0144799
710.173	0.0145487
710.251	0.0144913
710.329	0.0144479
710.407	0.0145182
710.485	0.0145227
710.563	0.0144214
710.641	0.0143923
710.719	0.0144151
710.798	0.0145089
710.876	0.0145107
710.954	0.0143731
711.032	0.0144439
711.110	0.0143964
711.188	0.0144521
711.266	0.0144895
711.344	0.0144369
711.423	0.0143374
711.501	0.0145667
711.579	0.0145344
711.657	0.0144376
711.735	0.0144682
711.813	0.0144230
711.891	0.0145014
711.969	0.0144675
712.048	0.0144640
712.126	0.0144409
712.204	0.0144197
712.282	0.0145540
712.360	0.0145451
712.438	0.0146558
712.516	0.0145823
712.594	0.0145639
712.673	0.0146304
712.751	0.0147575
712.829	0.0147002
712.907	0.0146793
712.985	0.0146886
713.063	0.0147644
713.141	0.0146799
713.219	0.0148021
713.298	0.0147330
713.376	0.0147088
713.454	0.0147543
713.532	0.0146969
713.610	0.0147788
713.688	0.0148054
713.766	0.0146352
713.844	0.0147469
713.923	0.0147150
714.001	0.0147066
714.079	0.0147430
714.157	0.0147008
714.235	0.0144958
714.313	0.0146653
714.391	0.0146324
714.469	0.0144881
714.548	0.0145937
714.626	0.0145867
714.704	0.0146207
714.782	0.0145576
714.860	0.0146197
714.938	0.0145681
715.016	0.0145601
715.094	0.0146683
715.173	0.0145757
715.251	0.0146504
715.329	0.0145084
715.407	0.0144889
715.485	0.0146111
715.563	0.0146275
715.641	0.0144309
715.719	0.0145206
715.798	0.0144246
715.876	0.0144296
715.954	0.0144625
716.032	0.0144339
716.110	0.0144409
716.188	0.0144521
716.266	0.0144506
716.344	0.0141894
716.423	0.0143762
716.501	0.0143823
716.579	0.0145180
716.657	0.0144592
716.735	0.0143443
716.813	0.0143924
716.891	0.0145380
716.969	0.0144659
717.048	0.0143288
717.126	0.0146117
717.204	0.0144025
717.282	0.0144784
717.360	0.0145505
717.438	0.0145679
717.516	0.0145855
717.594	0.0147220
717.673	0.0146037
717.751	0.0147582
717.829	0.0146460
717.907	0.0146640
717.985	0.0147748
718.063	0.0146777
718.141	0.0146682
718.219	0.0147922
718.298	0.0148884
718.376	0.0147918
718.454	0.0149473
718.532	0.0148073
718.610	0.0147709
718.688	0.0148440
718.766	0.0148315
718.844	0.0148852
718.923	0.0147196
719.001	0.0147672
719.079	0.0148159
719.157	0.0148068
719.235	0.0147324
719.313	0.0147525
719.391	0.0146397
719.469	0.0146001
719.548	0.0145848
719.626	0.0146033
719.704	0.0145325
719.782	0.0145596
719.860	0.0147421
719.938	0.0146204
720.016	0.0145581
720.094	0.0145683
720.173	0.0144881
720.251	0.0144340
720.329	0.0145317
720.407	0.0145877
720.485	0.0144289
720.563	0.0144839
720.641	0.0144763
720.719	0.0143743
720.798	0.0145551
720.876	0.0144257
720.954	0.0144240
721.032	0.0145491
721.110	0.0143444
721.188	0.0143510
721.266	0.0143994
721.344	0.0144610
721.423	0.0145873
721.501	0.0147059
721.579	0.0146027
721.657	0.0145831
721.735	0.0146262
721.813	0.0144726
721.891	0.0146788
721.969	0.0146387
722.048	0.0147591
722.126	0.0146134
722.204	0.0146333
722.282	0.0147738
722.360	0.0145116
722.438	0.0145795
722.516	0.0146449
722.594	0.0146940
722.673	0.0147347
722.751	0.0147519
722.829	0.0146082
722.907	0.0147630
722.985	0.0145148
723.063	0.0146356
723.141	0.0146486
723.219	0.0145210
723.298	0.0146885
723.376	0.0146947
723.454	0.0145386
723.532	0.0146947
723.610	0.0145585
723.688	0.0146889
723.766	0.0147028
723.844	0.0147253
723.923	0.0147496
724.001	0.0147137
724.079	0.0147377
724.157	0.0146434
724.235	0.0147976
724.313	0.0146951
724.391	0.0145792
724.469	0.0146051
724.548	0.0146448
724.626	0.0146693
724.704	0.0147210
724.782	0.0145882
724.860	0.0146053
724.938	0.0145012
725.016	0.0146071
725.094	0.0145068
725.173	0.0145263
725.251	0.0146194
725.329	0.0144539
725.407	0.0145428
725.485	0.0146638
725.563	0.0144248
725.641	0.0144578
725.719	0.0145905
725.798	0.0145728
725.876	0.0144371
725.954	0.0144960
726.032	0.0145335
726.110	0.0146287
726.188	0.0144207
726.266	0.0144714
726.344	0.0144284
726.423	0.0144926
726.501	0.0143077
726.579	0.0144059
726.657	0.0144929
726.735	0.0144678
726.813	0.0145222
726.891	0.0145622
726.969	0.0147023
727.048	0.0145292
727.126	0.0145465
727.204	0.0143985
727.282	0.0145425
727.360	0.0146384
727.438	0.0145378
727.516	0.0145927
727.594	0.0145651
727.673	0.0145477
727.751	0.0145976
727.829	0.0146837
727.907	0.0146250
727.985	0.0147818
728.063	0.0145789
728.141	0.0145177
728.219	0.0145746
728.298	0.0145643
728.376	0.0146310
728.454	0.0145541
728.532	0.0145841
728.610	0.0145521
728.688	0.0144644
728.766	0.0144145
728.844	0.0144445
728.923	0.0144141
729.001	0.0143514
729.079	0.0144379
729.157	0.0144778
729.235	0.0144662
729.313	0.0143855
729.391	0.0144232
729.469	0.0145123
729.548	0.0146311
729.626	0.0146399
729.704	0.0145700
729.782	0.0144646
729.860	0.0146751
729.938	0.0146656
730.016	0.0146928
730.094	0.0146563
730.173	0.0146263
730.251	0.0146037
730.329	0.0146074
730.407	0.0147103
730.485	0.0147806
730.563	0.0145950
730.641	0.0147485
730.719	0.0147691
730.798	0.0146538
730.876	0.0145345
730.954	0.0145551
731.032	0.0145618
731.110	0.0146680
731.188	0.0147617
731.266	0.0145094
731.344	0.0143784
731.423	0.0145412
731.501	0.0146088
731.579	0.0145472
731.657	0.0145428
731.735	0.0145058
731.813	0.0145422
731.891	0.0145926
731.969	0.0145018
732.048	0.0144086
732.126	0.0145212
732.204	0.0143835
732.282	0.0145728
732.360	0.0145419
732.438	0.0144913
732.516	0.0144758
732.594	0.0145161
732.673	0.0146806
732.751	0.0146445
732.829	0.0147158
732.907	0.0145699
732.985	0.0146700
733.063	0.0145809
733.141	0.0146131
733.219	0.0144780
733.298	0.0145412
733.376	0.0146642
733.454	0.0145702
733.532	0.0146419
733.610	0.0146896
733.688	0.0145933
733.766	0.0145580
733.844	0.0147069
733.923	0.0147267
734.001	0.0146706
734.079	0.0147824
734.157	0.0146127
734.235	0.0144766
734.313	0.0144843
734.391	0.0146630
734.469	0.0145638
734.548	0.0145380
734.626	0.0146609
734.704	0.0145102
734.782	0.0144685
734.860	0.0145333
734.938	0.0146195
735.016	0.0145131
735.094	0.0146703
735.173	0.0145285
735.251	0.0145663
735.329	0.0145676
735.407	0.0146200
735.485	0.0144666
735.563	0.0145530
735.641	0.0146862
735.719	0.0146480
