05/14/2022	19:14:24	Ver.	4.1	UNKNOWN
Optical Delay	650.016352	Delta X		0.078125	Sweeps	1	Scan Rate	0/0
Coordinates	Axis 1	NaN	Axis 2	NaN	Axis 3	NaN	Axis 4	NaN	Axis 5	NaN	Axis 6	0.000000
TX Power	0.000000	RX Power	0.000000

650.016	0.0144833
650.094	0.0144384
650.173	0.0144925
650.251	0.0146030
650.329	0.0145329
650.407	0.0143731
650.485	0.0144743
650.563	0.0144819
650.641	0.0146255
650.719	0.0144629
650.798	0.0144527
650.876	0.0144715
650.954	0.0145413
651.032	0.0145702
651.110	0.0146091
651.188	0.0144933
651.266	0.0143693
651.344	0.0145271
651.423	0.0145354
651.501	0.0144897
651.579	0.0144592
651.657	0.0144397
651.735	0.0145202
651.813	0.0143506
651.891	0.0145117
651.969	0.0144933
652.048	0.0145969
652.126	0.0146123
652.204	0.0144403
652.282	0.0146190
652.360	0.0145444
652.438	0.0144659
652.516	0.0145638
652.594	0.0146243
652.673	0.0144509
652.751	0.0145726
652.829	0.0144588
652.907	0.0145198
652.985	0.0146039
653.063	0.0145637
653.141	0.0144865
653.219	0.0144185
653.298	0.0144181
653.376	0.0146210
653.454	0.0144742
653.532	0.0144414
653.610	0.0145979
653.688	0.0144781
653.766	0.0144434
653.844	0.0145394
653.923	0.0145995
654.001	0.0145296
654.079	0.0145193
654.157	0.0144722
654.235	0.0144851
654.313	0.0145937
654.391	0.0144839
654.469	0.0145137
654.548	0.0145483
654.626	0.0146677
654.704	0.0145039
654.782	0.0145498
654.860	0.0145238
654.938	0.0144109
655.016	0.0145513
655.094	0.0146036
655.173	0.0144441
655.251	0.0146263
655.329	0.0143917
655.407	0.0145036
655.485	0.0145132
655.563	0.0145183
655.641	0.0144126
655.719	0.0145536
655.798	0.0145332
655.876	0.0143299
655.954	0.0144160
656.032	0.0144417
656.110	0.0144724
656.188	0.0143908
656.266	0.0144173
656.344	0.0145914
656.423	0.0144216
656.501	0.0142336
656.579	0.0143992
656.657	0.0144937
656.735	0.0144083
656.813	0.0144774
656.891	0.0145766
656.969	0.0142927
657.048	0.0145226
657.126	0.0145222
657.204	0.0144808
657.282	0.0144598
657.360	0.0145606
657.438	0.0143441
657.516	0.0143178
657.594	0.0144711
657.673	0.0144252
657.751	0.0144623
657.829	0.0144905
657.907	0.0144662
657.985	0.0145457
658.063	0.0145134
658.141	0.0145849
658.219	0.0145896
658.298	0.0145775
658.376	0.0145010
658.454	0.0144690
658.532	0.0145000
658.610	0.0145369
658.688	0.0146499
658.766	0.0143557
658.844	0.0144342
658.923	0.0144686
659.001	0.0144306
659.079	0.0144311
659.157	0.0144717
659.235	0.0145488
659.313	0.0144580
659.391	0.0145650
659.469	0.0144967
659.548	0.0144650
659.626	0.0143764
659.704	0.0144682
659.782	0.0145393
659.860	0.0145588
659.938	0.0144122
660.016	0.0144792
660.094	0.0144241
660.173	0.0143968
660.251	0.0145474
660.329	0.0144566
660.407	0.0144252
660.485	0.0144057
660.563	0.0143745
660.641	0.0145510
660.719	0.0145061
660.798	0.0144825
660.876	0.0144313
660.954	0.0144933
661.032	0.0145632
661.110	0.0144888
661.188	0.0145078
661.266	0.0146301
661.344	0.0145175
661.423	0.0144430
661.501	0.0145918
661.579	0.0144048
661.657	0.0144319
661.735	0.0144245
661.813	0.0144604
661.891	0.0145032
661.969	0.0146023
662.048	0.0146764
662.126	0.0145207
662.204	0.0145183
662.282	0.0142894
662.360	0.0144425
662.438	0.0145791
662.516	0.0146288
662.594	0.0146736
662.673	0.0144512
662.751	0.0144798
662.829	0.0145053
662.907	0.0144552
662.985	0.0143584
663.063	0.0145428
663.141	0.0145395
663.219	0.0145358
663.298	0.0145052
663.376	0.0145549
663.454	0.0144270
663.532	0.0146711
663.610	0.0145275
663.688	0.0144652
663.766	0.0145316
663.844	0.0145668
663.923	0.0145069
664.001	0.0145475
664.079	0.0144566
664.157	0.0145087
664.235	0.0144881
664.313	0.0143395
664.391	0.0144933
664.469	0.0144867
664.548	0.0144896
664.626	0.0144555
664.704	0.0143890
664.782	0.0144852
664.860	0.0143479
664.938	0.0144440
665.016	0.0145280
665.094	0.0144189
665.173	0.0145166
665.251	0.0146280
665.329	0.0143868
665.407	0.0144625
665.485	0.0145399
665.563	0.0146072
665.641	0.0145206
665.719	0.0145322
665.798	0.0144267
665.876	0.0144486
665.954	0.0144151
666.032	0.0145281
666.110	0.0145882
666.188	0.0144176
666.266	0.0143563
666.344	0.0145035
666.423	0.0144170
666.501	0.0143783
666.579	0.0145383
666.657	0.0145568
666.735	0.0144127
666.813	0.0144525
666.891	0.0145172
666.969	0.0144222
667.048	0.0145787
667.126	0.0145105
667.204	0.0146082
667.282	0.0145551
667.360	0.0145508
667.438	0.0145200
667.516	0.0144074
667.594	0.0145435
667.673	0.0144898
667.751	0.0144978
667.829	0.0146107
667.907	0.0144841
667.985	0.0144943
668.063	0.0144653
668.141	0.0145677
668.219	0.0143787
668.298	0.0146290
668.376	0.0145951
668.454	0.0143687
668.532	0.0145357
668.610	0.0145213
668.688	0.0145097
668.766	0.0144808
668.844	0.0144248
668.923	0.0144743
669.001	0.0146164
669.079	0.0144673
669.157	0.0144309
669.235	0.0145003
669.313	0.0143563
669.391	0.0145483
669.469	0.0144492
669.548	0.0144424
669.626	0.0145834
669.704	0.0144443
669.782	0.0144864
669.860	0.0145522
669.938	0.0143803
670.016	0.0145615
670.094	0.0144124
670.173	0.0144198
670.251	0.0144238
670.329	0.0146458
670.407	0.0144933
670.485	0.0144391
670.563	0.0143300
670.641	0.0144736
670.719	0.0144357
670.798	0.0144335
670.876	0.0144390
670.954	0.0144593
671.032	0.0146142
671.110	0.0144003
671.188	0.0144190
671.266	0.0145895
671.344	0.0144746
671.423	0.0144714
671.501	0.0143941
671.579	0.0143891
671.657	0.0144865
671.735	0.0146115
671.813	0.0146031
671.891	0.0144609
671.969	0.0144952
672.048	0.0145539
672.126	0.0144734
672.204	0.0144447
672.282	0.0146425
672.360	0.0145841
672.438	0.0144344
672.516	0.0144380
672.594	0.0145395
672.673	0.0145903
672.751	0.0144503
672.829	0.0145487
672.907	0.0144057
672.985	0.0145045
673.063	0.0144947
673.141	0.0144367
673.219	0.0143927
673.298	0.0144437
673.376	0.0144467
673.454	0.0144534
673.532	0.0145786
673.610	0.0144955
673.688	0.0143407
673.766	0.0143556
673.844	0.0145333
673.923	0.0145660
674.001	0.0144437
674.079	0.0145050
674.157	0.0145668
674.235	0.0144070
674.313	0.0145943
674.391	0.0143418
674.469	0.0143850
674.548	0.0144912
674.626	0.0146275
674.704	0.0145036
674.782	0.0144344
674.860	0.0143398
674.938	0.0144495
675.016	0.0144552
675.094	0.0144437
675.173	0.0144758
675.251	0.0143188
675.329	0.0144076
675.407	0.0144947
675.485	0.0145492
675.563	0.0145340
675.641	0.0144677
675.719	0.0145677
675.798	0.0144158
675.876	0.0144278
675.954	0.0144434
676.032	0.0144839
676.110	0.0144150
676.188	0.0144584
676.266	0.0145810
676.344	0.0144616
676.423	0.0144164
676.501	0.0145072
676.579	0.0145493
676.657	0.0145483
676.735	0.0144193
676.813	0.0143629
676.891	0.0145061
676.969	0.0145159
677.048	0.0145467
677.126	0.0143393
677.204	0.0144724
677.282	0.0144105
677.360	0.0143092
677.438	0.0144292
677.516	0.0143437
677.594	0.0145008
677.673	0.0143488
677.751	0.0143427
677.829	0.0145722
677.907	0.0145969
677.985	0.0143856
678.063	0.0144757
678.141	0.0144335
678.219	0.0144430
678.298	0.0144487
678.376	0.0144072
678.454	0.0144165
678.532	0.0143576
678.610	0.0144297
678.688	0.0144034
678.766	0.0144128
678.844	0.0144330
678.923	0.0143105
679.001	0.0144737
679.079	0.0144889
679.157	0.0144099
679.235	0.0144803
679.313	0.0144881
679.391	0.0145801
679.469	0.0145560
679.548	0.0144400
679.626	0.0144633
679.704	0.0144461
679.782	0.0146075
679.860	0.0144962
679.938	0.0144997
680.016	0.0144286
680.094	0.0145511
680.173	0.0143315
680.251	0.0143214
680.329	0.0145132
680.407	0.0145242
680.485	0.0145389
680.563	0.0145065
680.641	0.0144905
680.719	0.0145195
680.798	0.0144942
680.876	0.0145414
680.954	0.0145129
681.032	0.0144995
681.110	0.0145364
681.188	0.0145287
681.266	0.0144670
681.344	0.0143881
681.423	0.0144570
681.501	0.0145550
681.579	0.0145914
681.657	0.0144161
681.735	0.0143939
681.813	0.0144260
681.891	0.0145116
681.969	0.0145380
682.048	0.0143916
682.126	0.0144799
682.204	0.0144431
682.282	0.0145692
682.360	0.0145605
682.438	0.0145821
682.516	0.0144389
682.594	0.0144708
682.673	0.0144791
682.751	0.0144471
682.829	0.0144985
682.907	0.0145718
682.985	0.0145306
683.063	0.0145338
683.141	0.0145080
683.219	0.0144816
683.298	0.0145523
683.376	0.0144648
683.454	0.0147019
683.532	0.0145343
683.610	0.0145515
683.688	0.0144514
683.766	0.0143441
683.844	0.0143250
683.923	0.0143990
684.001	0.0142919
684.079	0.0143766
684.157	0.0145619
684.235	0.0145006
684.313	0.0145895
684.391	0.0146294
684.469	0.0145888
684.548	0.0145565
684.626	0.0146936
684.704	0.0146933
684.782	0.0146450
684.860	0.0145967
684.938	0.0144906
685.016	0.0145239
685.094	0.0144166
685.173	0.0141121
685.251	0.0141460
685.329	0.0140567
685.407	0.0139130
685.485	0.0140350
685.563	0.0140060
685.641	0.0138806
685.719	0.0141724
685.798	0.0141879
685.876	0.0142455
685.954	0.0146384
686.032	0.0146857
686.110	0.0148454
686.188	0.0150480
686.266	0.0152932
686.344	0.0152938
686.423	0.0151858
686.501	0.0151777
686.579	0.0152282
686.657	0.0151159
686.735	0.0149079
686.813	0.0147038
686.891	0.0145393
686.969	0.0143856
687.048	0.0141808
687.126	0.0140311
687.204	0.0137505
687.282	0.0137518
687.360	0.0135751
687.438	0.0133701
687.516	0.0133875
687.594	0.0133798
687.673	0.0132864
687.751	0.0130532
687.829	0.0132224
687.907	0.0132449
687.985	0.0133385
688.063	0.0135429
688.141	0.0136291
688.219	0.0137922
688.298	0.0143092
688.376	0.0147793
688.454	0.0151604
688.532	0.0157188
688.610	0.0160237
688.688	0.0164704
688.766	0.0169555
688.844	0.0172612
688.923	0.0174094
689.001	0.0175799
689.079	0.0176688
689.157	0.0175101
689.235	0.0173652
689.313	0.0166880
689.391	0.0163689
689.469	0.0157797
689.548	0.0149384
689.626	0.0141664
689.704	0.0133737
689.782	0.0125943
689.860	0.0117652
689.938	0.0110072
690.016	0.0105945
690.094	0.0101785
690.173	0.00968910
690.251	0.00960167
690.329	0.00951660
690.407	0.00981483
690.485	0.00992897
690.563	0.0101837
690.641	0.0106753
690.719	0.0111909
690.798	0.0118898
690.876	0.0127222
690.954	0.0136481
691.032	0.0145064
691.110	0.0155592
691.188	0.0164153
691.266	0.0176096
691.344	0.0186395
691.423	0.0196148
691.501	0.0205328
691.579	0.0213200
691.657	0.0218874
691.735	0.0222923
691.813	0.0223892
691.891	0.0222912
691.969	0.0218020
692.048	0.0209435
692.126	0.0200240
692.204	0.0189360
692.282	0.0179032
692.360	0.0164191
692.438	0.0150664
692.516	0.0137888
692.594	0.0126472
692.673	0.0113235
692.751	0.0101115
692.829	0.00936447
692.907	0.00844078
692.985	0.00756020
693.063	0.00712410
693.141	0.00639099
693.219	0.00592384
693.298	0.00564224
693.376	0.00539490
693.454	0.00540825
693.532	0.00564331
693.610	0.00615166
693.688	0.00680252
693.766	0.00784836
693.844	0.00894150
693.923	0.0103192
694.001	0.0117715
694.079	0.0133527
694.157	0.0149545
694.235	0.0164632
694.313	0.0180813
694.391	0.0194494
694.469	0.0207734
694.548	0.0221202
694.626	0.0232687
694.704	0.0242586
694.782	0.0253156
694.860	0.0260786
694.938	0.0266360
695.016	0.0269812
695.094	0.0269957
695.173	0.0266460
695.251	0.0261876
695.329	0.0252086
695.407	0.0238090
695.485	0.0220303
695.563	0.0201568
695.641	0.0178477
695.719	0.0156442
695.798	0.0134863
695.876	0.0111739
695.954	0.00919907
696.032	0.00719948
696.110	0.00576111
696.188	0.00452919
696.266	0.00347244
696.344	0.00286720
696.423	0.00248787
696.501	0.00231888
696.579	0.00223564
696.657	0.00248001
696.735	0.00288284
696.813	0.00333153
696.891	0.00389633
696.969	0.00447937
697.048	0.00536743
697.126	0.00643425
697.204	0.00753555
697.282	0.00892883
697.360	0.0104559
697.438	0.0123509
697.516	0.0142007
697.594	0.0158894
697.673	0.0177505
697.751	0.0194334
697.829	0.0208972
697.907	0.0220874
697.985	0.0233195
698.063	0.0242059
698.141	0.0246811
698.219	0.0253142
698.298	0.0255299
698.376	0.0257108
698.454	0.0258183
698.532	0.0257071
698.610	0.0255347
698.688	0.0251685
698.766	0.0247694
698.844	0.0244586
698.923	0.0236002
699.001	0.0227106
699.079	0.0215929
699.157	0.0202633
699.235	0.0187673
699.313	0.0171505
699.391	0.0154115
699.469	0.0136376
699.548	0.0121204
699.626	0.0103139
699.704	0.00881493
699.782	0.00749489
699.860	0.00621979
699.938	0.00519798
700.016	0.00422066
700.094	0.00340828
700.173	0.00295700
700.251	0.00265808
700.329	0.00260368
700.407	0.00277657
700.485	0.00307068
700.563	0.00325127
700.641	0.00394714
700.719	0.00453941
700.798	0.00523056
700.876	0.00629196
700.954	0.00721191
701.032	0.00856728
701.110	0.00999115
701.188	0.0113195
701.266	0.0129318
701.344	0.0143674
701.423	0.0159423
701.501	0.0173731
701.579	0.0186678
701.657	0.0198734
701.735	0.0210835
701.813	0.0222302
701.891	0.0230148
701.969	0.0236993
702.048	0.0245566
702.126	0.0250222
702.204	0.0252997
702.282	0.0256311
702.360	0.0258781
702.438	0.0256694
702.516	0.0251574
702.594	0.0248884
702.673	0.0240099
702.751	0.0231008
702.829	0.0219425
702.907	0.0206366
702.985	0.0192646
703.063	0.0179069
703.141	0.0165461
703.219	0.0150897
703.298	0.0136527
703.376	0.0125536
703.454	0.0112300
703.532	0.0100877
703.610	0.00922783
703.688	0.00837448
703.766	0.00742905
703.844	0.00692924
703.923	0.00659370
704.001	0.00605133
704.079	0.00594032
704.157	0.00561028
704.235	0.00574707
704.313	0.00579208
704.391	0.00601685
704.469	0.00654305
704.548	0.00708038
704.626	0.00759003
704.704	0.00844055
704.782	0.00918694
704.860	0.00993126
704.938	0.0110610
705.016	0.0119033
705.094	0.0129094
705.173	0.0138695
705.251	0.0148646
705.329	0.0157703
705.407	0.0166690
705.485	0.0172457
705.563	0.0178423
705.641	0.0185066
705.719	0.0189147
705.798	0.0192448
705.876	0.0194560
705.954	0.0196240
706.032	0.0198267
706.110	0.0196684
706.188	0.0195193
706.266	0.0194135
706.344	0.0191309
706.423	0.0187175
706.501	0.0182471
706.579	0.0178976
706.657	0.0174030
706.735	0.0166787
706.813	0.0162032
706.891	0.0158354
706.969	0.0153886
707.048	0.0150217
707.126	0.0146674
707.204	0.0143351
707.282	0.0143446
707.360	0.0142187
707.438	0.0142078
707.516	0.0141662
707.594	0.0140260
707.673	0.0140912
707.751	0.0141189
707.829	0.0140984
707.907	0.0140546
707.985	0.0142883
708.063	0.0141592
708.141	0.0139365
708.219	0.0138374
708.298	0.0138121
708.376	0.0137347
708.454	0.0136197
708.532	0.0136344
708.610	0.0134876
708.688	0.0132647
708.766	0.0132886
708.844	0.0133279
708.923	0.0132518
709.001	0.0131227
709.079	0.0130853
709.157	0.0132980
709.235	0.0133345
709.313	0.0133981
709.391	0.0133434
709.469	0.0132612
709.548	0.0131906
709.626	0.0130926
709.704	0.0130672
709.782	0.0131415
709.860	0.0130604
709.938	0.0131216
710.016	0.0131652
710.094	0.0132893
710.173	0.0133345
710.251	0.0135472
710.329	0.0136333
710.407	0.0137579
710.485	0.0139894
710.563	0.0140401
710.641	0.0139362
710.719	0.0141390
710.798	0.0141254
710.876	0.0142987
710.954	0.0142255
711.032	0.0143063
711.110	0.0142514
711.188	0.0143200
711.266	0.0143228
711.344	0.0143003
711.423	0.0145889
711.501	0.0147722
711.579	0.0150482
711.657	0.0152357
711.735	0.0156421
711.813	0.0159286
711.891	0.0163999
711.969	0.0164239
712.048	0.0166858
712.126	0.0170797
712.204	0.0172683
712.282	0.0172988
712.360	0.0173689
712.438	0.0173991
712.516	0.0172840
712.594	0.0171059
712.673	0.0170751
712.751	0.0170541
712.829	0.0166522
712.907	0.0164130
712.985	0.0162772
713.063	0.0160508
713.141	0.0157763
713.219	0.0153544
713.298	0.0151851
713.376	0.0148413
713.454	0.0145902
713.532	0.0142537
713.610	0.0139628
713.688	0.0138043
713.766	0.0134273
713.844	0.0132288
713.923	0.0131079
714.001	0.0127509
714.079	0.0127268
714.157	0.0125427
714.235	0.0125468
714.313	0.0125179
714.391	0.0125366
714.469	0.0123759
714.548	0.0124722
714.626	0.0125883
714.704	0.0124564
714.782	0.0126249
714.860	0.0126605
714.938	0.0125799
715.016	0.0126530
715.094	0.0125916
715.173	0.0125986
715.251	0.0125845
715.329	0.0128088
715.407	0.0128030
715.485	0.0128754
715.563	0.0131313
715.641	0.0131903
715.719	0.0134864
715.798	0.0136583
715.876	0.0138071
715.954	0.0138881
716.032	0.0143189
716.110	0.0144136
716.188	0.0145876
716.266	0.0147908
716.344	0.0149644
716.423	0.0152732
716.501	0.0153916
716.579	0.0155312
716.657	0.0156902
716.735	0.0159296
716.813	0.0160036
716.891	0.0160224
716.969	0.0162604
717.048	0.0163866
717.126	0.0163531
717.204	0.0164875
717.282	0.0163853
717.360	0.0163685
717.438	0.0163054
717.516	0.0160574
717.594	0.0159213
717.673	0.0157986
717.751	0.0157484
717.829	0.0153666
717.907	0.0152399
717.985	0.0151113
718.063	0.0152261
718.141	0.0151237
718.219	0.0150641
718.298	0.0150446
718.376	0.0149813
718.454	0.0148614
718.532	0.0150578
718.610	0.0149990
718.688	0.0150752
718.766	0.0148890
718.844	0.0148158
718.923	0.0149533
719.001	0.0148549
719.079	0.0146088
719.157	0.0147096
719.235	0.0147020
719.313	0.0144908
719.391	0.0143200
719.469	0.0142273
719.548	0.0140922
719.626	0.0140083
719.704	0.0137798
719.782	0.0138461
719.860	0.0136014
719.938	0.0134277
720.016	0.0133089
720.094	0.0131098
720.173	0.0130707
720.251	0.0128152
720.329	0.0128092
720.407	0.0126942
720.485	0.0125953
720.563	0.0125621
720.641	0.0126708
720.719	0.0125987
720.798	0.0124990
720.876	0.0125605
720.954	0.0126938
721.032	0.0128285
721.110	0.0129128
721.188	0.0130054
721.266	0.0131261
721.344	0.0133677
721.423	0.0134795
721.501	0.0136066
721.579	0.0138477
721.657	0.0140645
721.735	0.0141575
721.813	0.0145064
721.891	0.0147947
721.969	0.0150114
722.048	0.0152632
722.126	0.0154350
722.204	0.0156279
722.282	0.0159991
722.360	0.0161801
722.438	0.0163943
722.516	0.0165586
722.594	0.0166552
722.673	0.0167422
722.751	0.0166763
722.829	0.0167505
722.907	0.0167528
722.985	0.0164175
723.063	0.0162406
723.141	0.0160654
723.219	0.0159650
723.298	0.0156496
723.376	0.0155468
723.454	0.0153392
723.532	0.0151570
723.610	0.0149899
723.688	0.0149165
723.766	0.0148428
723.844	0.0148920
723.923	0.0149628
724.001	0.0148644
724.079	0.0148429
724.157	0.0148763
724.235	0.0148755
724.313	0.0148319
724.391	0.0148084
724.469	0.0147939
724.548	0.0148509
724.626	0.0146854
724.704	0.0145977
724.782	0.0144956
724.860	0.0144090
724.938	0.0144267
725.016	0.0143261
725.094	0.0142626
725.173	0.0141100
725.251	0.0139722
725.329	0.0139012
725.407	0.0137829
725.485	0.0137690
725.563	0.0136387
725.641	0.0136780
725.719	0.0135860
725.798	0.0134873
725.876	0.0133555
725.954	0.0133817
726.032	0.0132692
726.110	0.0133067
726.188	0.0134452
726.266	0.0133194
726.344	0.0133140
726.423	0.0134585
726.501	0.0134787
726.579	0.0134714
726.657	0.0134017
726.735	0.0134874
726.813	0.0135352
726.891	0.0134870
726.969	0.0135956
727.048	0.0135959
727.126	0.0136243
727.204	0.0136156
727.282	0.0135487
727.360	0.0136287
727.438	0.0138246
727.516	0.0138062
727.594	0.0139980
727.673	0.0141827
727.751	0.0143164
727.829	0.0143931
727.907	0.0147543
727.985	0.0147445
728.063	0.0150141
728.141	0.0151821
728.219	0.0153651
728.298	0.0154749
728.376	0.0156481
728.454	0.0158047
728.532	0.0158136
728.610	0.0158519
728.688	0.0159351
728.766	0.0159097
728.844	0.0161176
728.923	0.0161917
729.001	0.0160172
729.079	0.0160292
729.157	0.0160857
729.235	0.0159914
729.313	0.0159516
729.391	0.0160315
729.469	0.0161041
729.548	0.0159611
729.626	0.0158568
729.704	0.0158849
729.782	0.0158263
729.860	0.0156561
729.938	0.0156231
730.016	0.0156483
730.094	0.0154486
730.173	0.0154748
730.251	0.0151675
730.329	0.0151418
730.407	0.0151358
730.485	0.0148756
730.563	0.0148110
730.641	0.0144083
730.719	0.0141192
730.798	0.0140340
730.876	0.0138811
730.954	0.0135960
731.032	0.0133932
731.110	0.0132631
731.188	0.0131528
731.266	0.0130015
731.344	0.0128405
731.423	0.0126334
731.501	0.0126378
731.579	0.0126688
731.657	0.0127366
731.735	0.0127756
731.813	0.0126598
731.891	0.0126379
731.969	0.0126119
732.048	0.0126754
732.126	0.0125666
732.204	0.0126569
732.282	0.0127205
732.360	0.0127329
732.438	0.0128338
732.516	0.0128332
732.594	0.0129181
732.673	0.0130949
732.751	0.0134795
732.829	0.0135506
732.907	0.0138493
732.985	0.0140838
733.063	0.0142726
733.141	0.0145303
733.219	0.0148077
733.298	0.0151028
733.376	0.0151730
733.454	0.0154989
733.532	0.0155146
733.610	0.0155913
733.688	0.0159512
733.766	0.0157885
733.844	0.0158083
733.923	0.0159392
734.001	0.0160852
734.079	0.0160907
734.157	0.0160569
734.235	0.0159315
734.313	0.0159827
734.391	0.0159326
734.469	0.0158442
734.548	0.0157383
734.626	0.0157355
734.704	0.0157540
734.782	0.0157203
734.860	0.0155070
734.938	0.0153845
735.016	0.0155206
735.094	0.0154636
735.173	0.0152895
735.251	0.0152081
735.329	0.0150546
735.407	0.0151392
