05/14/2022	19:15:29	Ver.	4.1	UNKNOWN
Optical Delay	650.016352	Delta X		0.078125	Sweeps	1	Scan Rate	0/0
Coordinates	Axis 1	NaN	Axis 2	NaN	Axis 3	NaN	Axis 4	NaN	Axis 5	NaN	Axis 6	0.000000
TX Power	0.000000	RX Power	0.000000

650.016	0.0142258
650.094	0.0141991
650.173	0.0141920
650.251	0.0143595
650.329	0.0143003
650.407	0.0142345
650.485	0.0142091
650.563	0.0141862
650.641	0.0142242
650.719	0.0143001
650.798	0.0142646
650.876	0.0141706
650.954	0.0142284
651.032	0.0141711
651.110	0.0143098
651.188	0.0142508
651.266	0.0143246
651.344	0.0142326
651.423	0.0141900
651.501	0.0142631
651.579	0.0141958
651.657	0.0142865
651.735	0.0142463
651.813	0.0141750
651.891	0.0142924
651.969	0.0142911
652.048	0.0139558
652.126	0.0141457
652.204	0.0141645
652.282	0.0142522
652.360	0.0143689
652.438	0.0143021
652.516	0.0143322
652.594	0.0142094
652.673	0.0143324
652.751	0.0142765
652.829	0.0142321
652.907	0.0142612
652.985	0.0141486
653.063	0.0142160
653.141	0.0143066
653.219	0.0143948
653.298	0.0141729
653.376	0.0140775
653.454	0.0142709
653.532	0.0142629
653.610	0.0142300
653.688	0.0142160
653.766	0.0143238
653.844	0.0143018
653.923	0.0141732
654.001	0.0142012
654.079	0.0141792
654.157	0.0141344
654.235	0.0142546
654.313	0.0142886
654.391	0.0141636
654.469	0.0142810
654.548	0.0142091
654.626	0.0142802
654.704	0.0141318
654.782	0.0142081
654.860	0.0142631
654.938	0.0142865
655.016	0.0142200
655.094	0.0140739
655.173	0.0141705
655.251	0.0142834
655.329	0.0142691
655.407	0.0142430
655.485	0.0141157
655.563	0.0142649
655.641	0.0141068
655.719	0.0142801
655.798	0.0141989
655.876	0.0140920
655.954	0.0142382
656.032	0.0142838
656.110	0.0142311
656.188	0.0142792
656.266	0.0141260
656.344	0.0141527
656.423	0.0142252
656.501	0.0142183
656.579	0.0141464
656.657	0.0141538
656.735	0.0142654
656.813	0.0142119
656.891	0.0141029
656.969	0.0142252
657.048	0.0142756
657.126	0.0142252
657.204	0.0142073
657.282	0.0141872
657.360	0.0142557
657.438	0.0143338
657.516	0.0141656
657.594	0.0139996
657.673	0.0142794
657.751	0.0142114
657.829	0.0140534
657.907	0.0141056
657.985	0.0141241
658.063	0.0143253
658.141	0.0143452
658.219	0.0142841
658.298	0.0141451
658.376	0.0142324
658.454	0.0142513
658.532	0.0141660
658.610	0.0143739
658.688	0.0142165
658.766	0.0143436
658.844	0.0143304
658.923	0.0142495
659.001	0.0141707
659.079	0.0143211
659.157	0.0141479
659.235	0.0141351
659.313	0.0141222
659.391	0.0143235
659.469	0.0141917
659.548	0.0140909
659.626	0.0142593
659.704	0.0142233
659.782	0.0141090
659.860	0.0142408
659.938	0.0143546
660.016	0.0142783
660.094	0.0141477
660.173	0.0140643
660.251	0.0142960
660.329	0.0142731
660.407	0.0143005
660.485	0.0141364
660.563	0.0143127
660.641	0.0142383
660.719	0.0142226
660.798	0.0142251
660.876	0.0141996
660.954	0.0143884
661.032	0.0141164
661.110	0.0142319
661.188	0.0143566
661.266	0.0142761
661.344	0.0142243
661.423	0.0142639
661.501	0.0141618
661.579	0.0142555
661.657	0.0142497
661.735	0.0142651
661.813	0.0142068
661.891	0.0141632
661.969	0.0142885
662.048	0.0142178
662.126	0.0141685
662.204	0.0142473
662.282	0.0143206
662.360	0.0141650
662.438	0.0141560
662.516	0.0142295
662.594	0.0142558
662.673	0.0142854
662.751	0.0141595
662.829	0.0141435
662.907	0.0143500
662.985	0.0143741
663.063	0.0142226
663.141	0.0142915
663.219	0.0142094
663.298	0.0140331
663.376	0.0141067
663.454	0.0143856
663.532	0.0142686
663.610	0.0142297
663.688	0.0141547
663.766	0.0141881
663.844	0.0143626
663.923	0.0140861
664.001	0.0142361
664.079	0.0140809
664.157	0.0141879
664.235	0.0141830
664.313	0.0141250
664.391	0.0142319
664.469	0.0142144
664.548	0.0142371
664.626	0.0142499
664.704	0.0142194
664.782	0.0141956
664.860	0.0142953
664.938	0.0144395
665.016	0.0141014
665.094	0.0142524
665.173	0.0143337
665.251	0.0143893
665.329	0.0142859
665.407	0.0141794
665.485	0.0141898
665.563	0.0142594
665.641	0.0142631
665.719	0.0141605
665.798	0.0141971
665.876	0.0142315
665.954	0.0142239
666.032	0.0142052
666.110	0.0141399
666.188	0.0141742
666.266	0.0140504
666.344	0.0142020
666.423	0.0142307
666.501	0.0142403
666.579	0.0142184
666.657	0.0141679
666.735	0.0142240
666.813	0.0140607
666.891	0.0141989
666.969	0.0141598
667.048	0.0141892
667.126	0.0142639
667.204	0.0142602
667.282	0.0141451
667.360	0.0139700
667.438	0.0140791
667.516	0.0141525
667.594	0.0141628
667.673	0.0141896
667.751	0.0141885
667.829	0.0142493
667.907	0.0140926
667.985	0.0141536
668.063	0.0142518
668.141	0.0142477
668.219	0.0141727
668.298	0.0141284
668.376	0.0141954
668.454	0.0141793
668.532	0.0143102
668.610	0.0143317
668.688	0.0142783
668.766	0.0140915
668.844	0.0142422
668.923	0.0142613
669.001	0.0142091
669.079	0.0143183
669.157	0.0141552
669.235	0.0141798
669.313	0.0142136
669.391	0.0141669
669.469	0.0141422
669.548	0.0141460
669.626	0.0143094
669.704	0.0142397
669.782	0.0142310
669.860	0.0143000
669.938	0.0142311
670.016	0.0141466
670.094	0.0140653
670.173	0.0142879
670.251	0.0142105
670.329	0.0142921
670.407	0.0142980
670.485	0.0141143
670.563	0.0142175
670.641	0.0142352
670.719	0.0142705
670.798	0.0142358
670.876	0.0142790
670.954	0.0142979
671.032	0.0141553
671.110	0.0142326
671.188	0.0143278
671.266	0.0142208
671.344	0.0142644
671.423	0.0142479
671.501	0.0142860
671.579	0.0141937
671.657	0.0142345
671.735	0.0140903
671.813	0.0142904
671.891	0.0143586
671.969	0.0141169
672.048	0.0142629
672.126	0.0143085
672.204	0.0141998
672.282	0.0142828
672.360	0.0141830
672.438	0.0142861
672.516	0.0142957
672.594	0.0141932
672.673	0.0142133
672.751	0.0141569
672.829	0.0142369
672.907	0.0142290
672.985	0.0141285
673.063	0.0142255
673.141	0.0143493
673.219	0.0142618
673.298	0.0141341
673.376	0.0142795
673.454	0.0140408
673.532	0.0142141
673.610	0.0143571
673.688	0.0142086
673.766	0.0141184
673.844	0.0141990
673.923	0.0142637
674.001	0.0142575
674.079	0.0140951
674.157	0.0141684
674.235	0.0141705
674.313	0.0140900
674.391	0.0142793
674.469	0.0142490
674.548	0.0143050
674.626	0.0142315
674.704	0.0141309
674.782	0.0141302
674.860	0.0142840
674.938	0.0143291
675.016	0.0141979
675.094	0.0142813
675.173	0.0141621
675.251	0.0142223
675.329	0.0141926
675.407	0.0143145
675.485	0.0141829
675.563	0.0142071
675.641	0.0142796
675.719	0.0141379
675.798	0.0141711
675.876	0.0141299
675.954	0.0142724
676.032	0.0142366
676.110	0.0140993
676.188	0.0141547
676.266	0.0142986
676.344	0.0141925
676.423	0.0141631
676.501	0.0141665
676.579	0.0142383
676.657	0.0141154
676.735	0.0142626
676.813	0.0142425
676.891	0.0142443
676.969	0.0142977
677.048	0.0142131
677.126	0.0143088
677.204	0.0142764
677.282	0.0141648
677.360	0.0141165
677.438	0.0140989
677.516	0.0142214
677.594	0.0141897
677.673	0.0142488
677.751	0.0142715
677.829	0.0142020
677.907	0.0141814
677.985	0.0142946
678.063	0.0142841
678.141	0.0142540
678.219	0.0141198
678.298	0.0142056
678.376	0.0140830
678.454	0.0141709
678.532	0.0142243
678.610	0.0141920
678.688	0.0143525
678.766	0.0142678
678.844	0.0142630
678.923	0.0142065
679.001	0.0142041
679.079	0.0142861
679.157	0.0143404
679.235	0.0143299
679.313	0.0142867
679.391	0.0142890
679.469	0.0143394
679.548	0.0143091
679.626	0.0143118
679.704	0.0143221
679.782	0.0142847
679.860	0.0142450
679.938	0.0141921
680.016	0.0141969
680.094	0.0141825
680.173	0.0142146
680.251	0.0141354
680.329	0.0142823
680.407	0.0142346
680.485	0.0141181
680.563	0.0141162
680.641	0.0142483
680.719	0.0143235
680.798	0.0141606
680.876	0.0141701
680.954	0.0141401
681.032	0.0141856
681.110	0.0142380
681.188	0.0142086
681.266	0.0142177
681.344	0.0140990
681.423	0.0142360
681.501	0.0143040
681.579	0.0141666
681.657	0.0139650
681.735	0.0141994
681.813	0.0143610
681.891	0.0143903
681.969	0.0143153
682.048	0.0143468
682.126	0.0142393
682.204	0.0142458
682.282	0.0143040
682.360	0.0143050
682.438	0.0141160
682.516	0.0141681
682.594	0.0142446
682.673	0.0142648
682.751	0.0141970
682.829	0.0141896
682.907	0.0142829
682.985	0.0140651
683.063	0.0142258
683.141	0.0143680
683.219	0.0143919
683.298	0.0144961
683.376	0.0144895
683.454	0.0144759
683.532	0.0143146
683.610	0.0143382
683.688	0.0142320
683.766	0.0142153
683.844	0.0140311
683.923	0.0139254
684.001	0.0138013
684.079	0.0137784
684.157	0.0138223
684.235	0.0138213
684.313	0.0137585
684.391	0.0138803
684.469	0.0140135
684.548	0.0141058
684.626	0.0141300
684.704	0.0142365
684.782	0.0143019
684.860	0.0145084
684.938	0.0146345
685.016	0.0146617
685.094	0.0147211
685.173	0.0148547
685.251	0.0150010
685.329	0.0149099
685.407	0.0149615
685.485	0.0150806
685.563	0.0148295
685.641	0.0145419
685.719	0.0143597
685.798	0.0141828
685.876	0.0139555
685.954	0.0137408
686.032	0.0134850
686.110	0.0132211
686.188	0.0132091
686.266	0.0130137
686.344	0.0129539
686.423	0.0130492
686.501	0.0132920
686.579	0.0133655
686.657	0.0136864
686.735	0.0138225
686.813	0.0142751
686.891	0.0143617
686.969	0.0145826
687.048	0.0149286
687.126	0.0149393
687.204	0.0150594
687.282	0.0150994
687.360	0.0151820
687.438	0.0152123
687.516	0.0152192
687.594	0.0151482
687.673	0.0152364
687.751	0.0152665
687.829	0.0151566
687.907	0.0151839
687.985	0.0152701
688.063	0.0152100
688.141	0.0151226
688.219	0.0151832
688.298	0.0149200
688.376	0.0147157
688.454	0.0143768
688.532	0.0141998
688.610	0.0137791
688.688	0.0133625
688.766	0.0129776
688.844	0.0127367
688.923	0.0123663
689.001	0.0120727
689.079	0.0117712
689.157	0.0118504
689.235	0.0117865
689.313	0.0119901
689.391	0.0120724
689.469	0.0121608
689.548	0.0123642
689.626	0.0127000
689.704	0.0128302
689.782	0.0131104
689.860	0.0135591
689.938	0.0139878
690.016	0.0145144
690.094	0.0146950
690.173	0.0153555
690.251	0.0155864
690.329	0.0162417
690.407	0.0167867
690.485	0.0171860
690.563	0.0177021
690.641	0.0181316
690.719	0.0184781
690.798	0.0186336
690.876	0.0186749
690.954	0.0185728
691.032	0.0183563
691.110	0.0180235
691.188	0.0176074
691.266	0.0171558
691.344	0.0164422
691.423	0.0158033
691.501	0.0150830
691.579	0.0142551
691.657	0.0133674
691.735	0.0126638
691.813	0.0117139
691.891	0.0110777
691.969	0.0100835
692.048	0.00932129
692.126	0.00869019
692.204	0.00807014
692.282	0.00758232
692.360	0.00717583
692.438	0.00695923
692.516	0.00706360
692.594	0.00745247
692.673	0.00773979
692.751	0.00832581
692.829	0.00931297
692.907	0.0102260
692.985	0.0112624
693.063	0.0123811
693.141	0.0137804
693.219	0.0150081
693.298	0.0161990
693.376	0.0173785
693.454	0.0185453
693.532	0.0198935
693.610	0.0208617
693.688	0.0214951
693.766	0.0224040
693.844	0.0232220
693.923	0.0235307
694.001	0.0239342
694.079	0.0241432
694.157	0.0238941
694.235	0.0233671
694.313	0.0227062
694.391	0.0217801
694.469	0.0203994
694.548	0.0189630
694.626	0.0173889
694.704	0.0157211
694.782	0.0139523
694.860	0.0122819
694.938	0.0107659
695.016	0.00930565
695.094	0.00804001
695.173	0.00712387
695.251	0.00668365
695.329	0.00616661
695.407	0.00591438
695.485	0.00605713
695.563	0.00610298
695.641	0.00653915
695.719	0.00689896
695.798	0.00695030
695.876	0.00716095
695.954	0.00749695
696.032	0.00806747
696.110	0.00826523
696.188	0.00862915
696.266	0.00915764
696.344	0.00997055
696.423	0.0107690
696.501	0.0115561
696.579	0.0125605
696.657	0.0136676
696.735	0.0147366
696.813	0.0157915
696.891	0.0167506
696.969	0.0177280
697.048	0.0184679
697.126	0.0192966
697.204	0.0197441
697.282	0.0200747
697.360	0.0205274
697.438	0.0206234
697.516	0.0208577
697.594	0.0211256
697.673	0.0213699
697.751	0.0218013
697.829	0.0220627
697.907	0.0222909
697.985	0.0225170
698.063	0.0227579
698.141	0.0225828
698.219	0.0222777
698.298	0.0215644
698.376	0.0209659
698.454	0.0195988
698.532	0.0184240
698.610	0.0169676
698.688	0.0154642
698.766	0.0137640
698.844	0.0121713
698.923	0.0106197
699.001	0.00910782
699.079	0.00780037
699.157	0.00654892
699.235	0.00572861
699.313	0.00490257
699.391	0.00453674
699.469	0.00446892
699.548	0.00436798
699.626	0.00450836
699.704	0.00490242
699.782	0.00502716
699.860	0.00534225
699.938	0.00573723
700.016	0.00611107
700.094	0.00673531
700.173	0.00714142
700.251	0.00790428
700.329	0.00860855
700.407	0.00936859
700.485	0.0103841
700.563	0.0113808
700.641	0.0123750
700.719	0.0137003
700.798	0.0150024
700.876	0.0160225
700.954	0.0173318
701.032	0.0187015
701.110	0.0198649
701.188	0.0207272
701.266	0.0216263
701.344	0.0222748
701.423	0.0227148
701.501	0.0229104
701.579	0.0231342
701.657	0.0232995
701.735	0.0233419
701.813	0.0234029
701.891	0.0233721
701.969	0.0233057
702.048	0.0232418
702.126	0.0229751
702.204	0.0228988
702.282	0.0224594
702.360	0.0217419
702.438	0.0210785
702.516	0.0202077
702.594	0.0189442
702.673	0.0176560
702.751	0.0162476
702.829	0.0146812
702.907	0.0130679
702.985	0.0113484
703.063	0.00960899
703.141	0.00826401
703.219	0.00704239
703.298	0.00583572
703.376	0.00501122
703.454	0.00457199
703.532	0.00412483
703.610	0.00392426
703.688	0.00394226
703.766	0.00407158
703.844	0.00430565
703.923	0.00455719
704.001	0.00490761
704.079	0.00550812
704.157	0.00595200
704.235	0.00646126
704.313	0.00713402
704.391	0.00794090
704.469	0.00881134
704.548	0.00966957
704.626	0.0105264
704.704	0.0115173
704.782	0.0124451
704.860	0.0133312
704.938	0.0142239
705.016	0.0151500
705.094	0.0160417
705.173	0.0170060
705.251	0.0178058
705.329	0.0187450
705.407	0.0193669
705.485	0.0199193
705.563	0.0207241
705.641	0.0213006
705.719	0.0216248
705.798	0.0221895
705.876	0.0225546
705.954	0.0228837
706.032	0.0230534
706.110	0.0232909
706.188	0.0232820
706.266	0.0231838
706.344	0.0227758
706.423	0.0225533
706.501	0.0220454
706.579	0.0212747
706.657	0.0205276
706.735	0.0196576
706.813	0.0185839
706.891	0.0173158
706.969	0.0163736
707.048	0.0151329
707.126	0.0140413
707.204	0.0129763
707.282	0.0119695
707.360	0.0109235
707.438	0.0101308
707.516	0.00919144
707.594	0.00860733
707.673	0.00805824
707.751	0.00735893
707.829	0.00697411
707.907	0.00674255
707.985	0.00655899
708.063	0.00643356
708.141	0.00635460
708.219	0.00647591
708.298	0.00651833
708.376	0.00682106
708.454	0.00719551
708.532	0.00758751
708.610	0.00805191
708.688	0.00894928
708.766	0.00944832
708.844	0.0102245
708.923	0.0112019
709.001	0.0119228
709.079	0.0127147
709.157	0.0136043
709.235	0.0142809
709.313	0.0150291
709.391	0.0155393
709.469	0.0161917
709.548	0.0165855
709.626	0.0170242
709.704	0.0174696
709.782	0.0177759
709.860	0.0180862
709.938	0.0182495
710.016	0.0183147
710.094	0.0186868
710.173	0.0186616
710.251	0.0188390
710.329	0.0188987
710.407	0.0190260
710.485	0.0188211
710.563	0.0187521
710.641	0.0184679
710.719	0.0182784
710.798	0.0179032
710.876	0.0177568
710.954	0.0173707
711.032	0.0168478
711.110	0.0163330
711.188	0.0160815
711.266	0.0157614
711.344	0.0154375
711.423	0.0151437
711.501	0.0148788
711.579	0.0147385
711.657	0.0145554
711.735	0.0143504
711.813	0.0140900
711.891	0.0141000
711.969	0.0138939
712.048	0.0136942
712.126	0.0135795
712.204	0.0134004
712.282	0.0130777
712.360	0.0127816
712.438	0.0125363
712.516	0.0123471
712.594	0.0121643
712.673	0.0118703
712.751	0.0116576
712.829	0.0116131
712.907	0.0115819
712.985	0.0116653
713.063	0.0117320
713.141	0.0119028
713.219	0.0120832
713.298	0.0121894
713.376	0.0124800
713.454	0.0126580
713.532	0.0127150
713.610	0.0129733
713.688	0.0129276
713.766	0.0128945
713.844	0.0130886
713.923	0.0129727
714.001	0.0130943
714.079	0.0133220
714.157	0.0133442
714.235	0.0134145
714.313	0.0134683
714.391	0.0136091
714.469	0.0139910
714.548	0.0141823
714.626	0.0144930
714.704	0.0144958
714.782	0.0148385
714.860	0.0150758
714.938	0.0150159
715.016	0.0152086
715.094	0.0151880
715.173	0.0152149
715.251	0.0150169
715.329	0.0148722
715.407	0.0146886
715.485	0.0146179
715.563	0.0145438
715.641	0.0143306
715.719	0.0144980
715.798	0.0145900
715.876	0.0146096
715.954	0.0146767
716.032	0.0148698
716.110	0.0150654
716.188	0.0153155
716.266	0.0154156
716.344	0.0157120
716.423	0.0159322
716.501	0.0159370
716.579	0.0161316
716.657	0.0162953
716.735	0.0163132
716.813	0.0163067
716.891	0.0161278
716.969	0.0160461
717.048	0.0158177
717.126	0.0156839
717.204	0.0158225
717.282	0.0155173
717.360	0.0153528
717.438	0.0152010
717.516	0.0150588
717.594	0.0151053
717.673	0.0149781
717.751	0.0148076
717.829	0.0145796
717.907	0.0144746
717.985	0.0142060
718.063	0.0140905
718.141	0.0139614
718.219	0.0137177
718.298	0.0134990
718.376	0.0133138
718.454	0.0133022
718.532	0.0131403
718.610	0.0131155
718.688	0.0130686
718.766	0.0130197
718.844	0.0129592
718.923	0.0129059
719.001	0.0129146
719.079	0.0128304
719.157	0.0128709
719.235	0.0127587
719.313	0.0127872
719.391	0.0125965
719.469	0.0126753
719.548	0.0124839
719.626	0.0123152
719.704	0.0123116
719.782	0.0122968
719.860	0.0122776
719.938	0.0122528
720.016	0.0123012
720.094	0.0124245
720.173	0.0125680
720.251	0.0128372
720.329	0.0129016
720.407	0.0131380
720.485	0.0132892
720.563	0.0133701
720.641	0.0136543
720.719	0.0140233
720.798	0.0141741
720.876	0.0142611
720.954	0.0145992
721.032	0.0148053
721.110	0.0151300
721.188	0.0153060
721.266	0.0155174
721.344	0.0159429
721.423	0.0162213
721.501	0.0163040
721.579	0.0164287
721.657	0.0165868
721.735	0.0167005
721.813	0.0165674
721.891	0.0166664
721.969	0.0167715
722.048	0.0164747
722.126	0.0162575
722.204	0.0161077
722.282	0.0157938
722.360	0.0156932
722.438	0.0154929
722.516	0.0151003
722.594	0.0150092
722.673	0.0149223
722.751	0.0147395
722.829	0.0147783
722.907	0.0146374
722.985	0.0145777
723.063	0.0145969
723.141	0.0146379
723.219	0.0146209
723.298	0.0144798
723.376	0.0145160
723.454	0.0145144
723.532	0.0145112
723.610	0.0142685
723.688	0.0141267
723.766	0.0140001
723.844	0.0139017
723.923	0.0137424
724.001	0.0137126
724.079	0.0135608
724.157	0.0133556
724.235	0.0132666
724.313	0.0133778
724.391	0.0133234
724.469	0.0130267
724.548	0.0128682
724.626	0.0128901
724.704	0.0129044
724.782	0.0128561
724.860	0.0127893
724.938	0.0129165
725.016	0.0131104
725.094	0.0129095
725.173	0.0129354
725.251	0.0131512
725.329	0.0130868
725.407	0.0131942
725.485	0.0133080
725.563	0.0134006
725.641	0.0133770
725.719	0.0134598
725.798	0.0135535
725.876	0.0134009
725.954	0.0134406
726.032	0.0134618
726.110	0.0135585
726.188	0.0134133
726.266	0.0134138
726.344	0.0135600
726.423	0.0137966
726.501	0.0137270
726.579	0.0137943
726.657	0.0140762
726.735	0.0141835
726.813	0.0143611
726.891	0.0145228
726.969	0.0147095
727.048	0.0147980
727.126	0.0149343
727.204	0.0150694
727.282	0.0151810
727.360	0.0152739
727.438	0.0153667
727.516	0.0155634
727.594	0.0153688
727.673	0.0154510
727.751	0.0156454
727.829	0.0155476
727.907	0.0156201
727.985	0.0154554
728.063	0.0155557
728.141	0.0156213
728.219	0.0155089
728.298	0.0155499
728.376	0.0157973
728.454	0.0156565
728.532	0.0154520
728.610	0.0154368
728.688	0.0154217
728.766	0.0154103
728.844	0.0152448
728.923	0.0153016
729.001	0.0152100
729.079	0.0150288
729.157	0.0148412
729.235	0.0149358
729.313	0.0148175
729.391	0.0146343
729.469	0.0145742
729.548	0.0143855
729.626	0.0142716
729.704	0.0142443
729.782	0.0140055
729.860	0.0137807
729.938	0.0138097
730.016	0.0136783
730.094	0.0134421
730.173	0.0132799
730.251	0.0131140
730.329	0.0127921
730.407	0.0127883
730.485	0.0127187
730.563	0.0126084
730.641	0.0124629
730.719	0.0125118
730.798	0.0125912
730.876	0.0125542
730.954	0.0127804
731.032	0.0127847
731.110	0.0127652
731.188	0.0129774
731.266	0.0131911
731.344	0.0129788
731.423	0.0129942
731.501	0.0131419
731.579	0.0132838
731.657	0.0131921
731.735	0.0132271
731.813	0.0133800
731.891	0.0130660
731.969	0.0131936
732.048	0.0132948
732.126	0.0133439
732.204	0.0133942
732.282	0.0134325
732.360	0.0137477
732.438	0.0137919
732.516	0.0140941
732.594	0.0140418
732.673	0.0142113
732.751	0.0143182
732.829	0.0145131
732.907	0.0148351
732.985	0.0148997
733.063	0.0150949
733.141	0.0153352
733.219	0.0152798
733.298	0.0155225
733.376	0.0156938
733.454	0.0156767
733.532	0.0158263
733.610	0.0159628
733.688	0.0161144
733.766	0.0160442
733.844	0.0161401
733.923	0.0163214
734.001	0.0160595
734.079	0.0160026
734.157	0.0160872
734.235	0.0158864
734.313	0.0160255
734.391	0.0158428
734.469	0.0156628
734.548	0.0154162
734.626	0.0152232
734.704	0.0151342
734.782	0.0149651
734.860	0.0148762
734.938	0.0148106
735.016	0.0147225
735.094	0.0145985
735.173	0.0142899
735.251	0.0142004
735.329	0.0141621
735.407	0.0137135
