05/14/2022	19:16:04	Ver.	4.1	UNKNOWN
Optical Delay	650.016352	Delta X		0.078125	Sweeps	1	Scan Rate	0/0
Coordinates	Axis 1	NaN	Axis 2	NaN	Axis 3	NaN	Axis 4	NaN	Axis 5	NaN	Axis 6	0.000000
TX Power	0.000000	RX Power	0.000000

650.016	0.0145349
650.094	0.0146674
650.173	0.0145919
650.251	0.0145090
650.329	0.0145706
650.407	0.0146073
650.485	0.0144144
650.563	0.0146736
650.641	0.0146838
650.719	0.0146399
650.798	0.0144923
650.876	0.0145855
650.954	0.0144689
651.032	0.0144617
651.110	0.0146206
651.188	0.0145709
651.266	0.0145358
651.344	0.0146895
651.423	0.0145899
651.501	0.0143360
651.579	0.0144779
651.657	0.0146054
651.735	0.0143940
651.813	0.0145222
651.891	0.0145361
651.969	0.0145826
652.048	0.0145166
652.126	0.0145630
652.204	0.0145953
652.282	0.0146103
652.360	0.0144800
652.438	0.0145148
652.516	0.0144816
652.594	0.0146204
652.673	0.0146426
652.751	0.0145172
652.829	0.0145300
652.907	0.0144534
652.985	0.0144861
653.063	0.0146044
653.141	0.0145083
653.219	0.0144449
653.298	0.0145909
653.376	0.0146839
653.454	0.0146542
653.532	0.0144865
653.610	0.0145723
653.688	0.0147083
653.766	0.0144923
653.844	0.0146312
653.923	0.0146473
654.001	0.0145493
654.079	0.0144324
654.157	0.0145769
654.235	0.0147755
654.313	0.0144891
654.391	0.0145599
654.469	0.0145840
654.548	0.0144894
654.626	0.0144714
654.704	0.0146388
654.782	0.0145085
654.860	0.0145959
654.938	0.0146510
655.016	0.0145089
655.094	0.0146442
655.173	0.0146233
655.251	0.0144935
655.329	0.0144096
655.407	0.0144566
655.485	0.0145929
655.563	0.0145147
655.641	0.0145035
655.719	0.0144741
655.798	0.0144492
655.876	0.0145329
655.954	0.0145700
656.032	0.0145442
656.110	0.0146797
656.188	0.0145103
656.266	0.0144881
656.344	0.0145929
656.423	0.0145165
656.501	0.0145112
656.579	0.0144661
656.657	0.0145491
656.735	0.0147652
656.813	0.0145815
656.891	0.0146048
656.969	0.0144807
657.048	0.0145406
657.126	0.0146286
657.204	0.0146061
657.282	0.0144862
657.360	0.0146063
657.438	0.0146178
657.516	0.0145303
657.594	0.0145203
657.673	0.0144833
657.751	0.0144863
657.829	0.0145074
657.907	0.0144859
657.985	0.0146436
658.063	0.0146108
658.141	0.0147260
658.219	0.0145605
658.298	0.0144691
658.376	0.0145927
658.454	0.0144918
658.532	0.0146156
658.610	0.0145589
658.688	0.0145518
658.766	0.0146854
658.844	0.0145538
658.923	0.0146007
659.001	0.0146419
659.079	0.0145233
659.157	0.0145664
659.235	0.0144897
659.313	0.0146264
659.391	0.0145360
659.469	0.0145757
659.548	0.0145883
659.626	0.0145312
659.704	0.0145137
659.782	0.0145499
659.860	0.0145706
659.938	0.0145343
660.016	0.0146645
660.094	0.0144609
660.173	0.0146689
660.251	0.0147209
660.329	0.0146933
660.407	0.0145890
660.485	0.0143392
660.563	0.0146802
660.641	0.0145266
660.719	0.0145296
660.798	0.0146393
660.876	0.0145116
660.954	0.0144656
661.032	0.0146385
661.110	0.0145560
661.188	0.0146426
661.266	0.0144604
661.344	0.0145650
661.423	0.0144474
661.501	0.0146211
661.579	0.0145387
661.657	0.0145220
661.735	0.0145869
661.813	0.0145026
661.891	0.0145060
661.969	0.0145319
662.048	0.0145780
662.126	0.0145676
662.204	0.0145013
662.282	0.0145145
662.360	0.0144899
662.438	0.0144241
662.516	0.0144713
662.594	0.0144218
662.673	0.0144447
662.751	0.0146011
662.829	0.0145996
662.907	0.0145744
662.985	0.0145725
663.063	0.0146353
663.141	0.0144533
663.219	0.0146088
663.298	0.0146000
663.376	0.0145285
663.454	0.0145132
663.532	0.0143842
663.610	0.0144820
663.688	0.0145882
663.766	0.0144338
663.844	0.0144908
663.923	0.0144711
664.001	0.0144781
664.079	0.0145499
664.157	0.0145617
664.235	0.0146357
664.313	0.0144971
664.391	0.0144041
664.469	0.0145364
664.548	0.0144576
664.626	0.0145670
664.704	0.0145816
664.782	0.0146922
664.860	0.0146159
664.938	0.0144202
665.016	0.0144765
665.094	0.0145722
665.173	0.0144193
665.251	0.0143919
665.329	0.0144573
665.407	0.0146674
665.485	0.0145134
665.563	0.0144270
665.641	0.0145213
665.719	0.0146912
665.798	0.0145145
665.876	0.0145448
665.954	0.0145422
666.032	0.0146499
666.110	0.0145285
666.188	0.0145219
666.266	0.0143793
666.344	0.0146544
666.423	0.0145943
666.501	0.0145583
666.579	0.0145190
666.657	0.0146155
666.735	0.0145538
666.813	0.0145950
666.891	0.0144775
666.969	0.0146570
667.048	0.0145135
667.126	0.0146763
667.204	0.0144826
667.282	0.0144846
667.360	0.0145218
667.438	0.0146428
667.516	0.0145424
667.594	0.0146944
667.673	0.0145480
667.751	0.0145490
667.829	0.0144463
667.907	0.0143246
667.985	0.0145279
668.063	0.0146089
668.141	0.0145786
668.219	0.0146855
668.298	0.0145094
668.376	0.0144980
668.454	0.0145378
668.532	0.0145006
668.610	0.0145618
668.688	0.0145505
668.766	0.0146741
668.844	0.0146378
668.923	0.0145550
669.001	0.0144351
669.079	0.0145454
669.157	0.0145286
669.235	0.0146402
669.313	0.0145628
669.391	0.0145381
669.469	0.0144667
669.548	0.0145874
669.626	0.0145612
669.704	0.0146134
669.782	0.0145840
669.860	0.0144975
669.938	0.0144880
670.016	0.0144524
670.094	0.0144156
670.173	0.0145036
670.251	0.0145178
670.329	0.0144764
670.407	0.0144755
670.485	0.0145198
670.563	0.0145390
670.641	0.0146434
670.719	0.0146746
670.798	0.0147064
670.876	0.0146333
670.954	0.0145097
671.032	0.0144353
671.110	0.0145555
671.188	0.0145625
671.266	0.0146022
671.344	0.0145845
671.423	0.0145908
671.501	0.0145142
671.579	0.0145494
671.657	0.0145811
671.735	0.0145576
671.813	0.0144653
671.891	0.0144900
671.969	0.0145003
672.048	0.0144915
672.126	0.0145403
672.204	0.0146094
672.282	0.0145109
672.360	0.0144298
672.438	0.0145077
672.516	0.0146107
672.594	0.0144757
672.673	0.0144406
672.751	0.0146004
672.829	0.0145838
672.907	0.0143945
672.985	0.0144405
673.063	0.0145962
673.141	0.0144439
673.219	0.0145573
673.298	0.0145071
673.376	0.0144408
673.454	0.0145151
673.532	0.0143598
673.610	0.0143768
673.688	0.0145465
673.766	0.0145692
673.844	0.0145374
673.923	0.0144756
674.001	0.0144743
674.079	0.0146459
674.157	0.0146216
674.235	0.0144887
674.313	0.0145231
674.391	0.0144860
674.469	0.0145948
674.548	0.0144549
674.626	0.0145029
674.704	0.0144817
674.782	0.0145909
674.860	0.0144896
674.938	0.0145351
675.016	0.0145022
675.094	0.0145875
675.173	0.0144339
675.251	0.0144968
675.329	0.0145252
675.407	0.0145992
675.485	0.0145453
675.563	0.0144084
675.641	0.0145319
675.719	0.0144902
675.798	0.0145805
675.876	0.0144707
675.954	0.0144765
676.032	0.0146181
676.110	0.0144907
676.188	0.0144936
676.266	0.0144566
676.344	0.0145545
676.423	0.0146078
676.501	0.0145877
676.579	0.0145113
676.657	0.0145583
676.735	0.0144521
676.813	0.0144876
676.891	0.0145753
676.969	0.0145307
677.048	0.0145444
677.126	0.0144786
677.204	0.0145809
677.282	0.0144977
677.360	0.0145853
677.438	0.0146285
677.516	0.0145066
677.594	0.0145052
677.673	0.0145943
677.751	0.0145432
677.829	0.0145246
677.907	0.0147295
677.985	0.0144616
678.063	0.0145087
678.141	0.0146706
678.219	0.0145322
678.298	0.0144499
678.376	0.0145560
678.454	0.0145042
678.532	0.0146407
678.610	0.0146027
678.688	0.0145924
678.766	0.0145026
678.844	0.0144777
678.923	0.0146339
679.001	0.0146317
679.079	0.0147171
679.157	0.0145189
679.235	0.0145322
679.313	0.0146159
679.391	0.0146080
679.469	0.0145859
679.548	0.0144791
679.626	0.0146066
679.704	0.0145416
679.782	0.0145145
679.860	0.0145432
679.938	0.0144511
680.016	0.0145641
680.094	0.0144447
680.173	0.0145621
680.251	0.0145974
680.329	0.0145153
680.407	0.0146016
680.485	0.0145966
680.563	0.0146163
680.641	0.0144901
680.719	0.0144840
680.798	0.0144141
680.876	0.0146111
680.954	0.0145892
681.032	0.0145785
681.110	0.0145921
681.188	0.0146225
681.266	0.0146598
681.344	0.0144536
681.423	0.0145374
681.501	0.0146199
681.579	0.0147002
681.657	0.0146317
681.735	0.0145573
681.813	0.0144981
681.891	0.0145699
681.969	0.0145152
682.048	0.0144366
682.126	0.0146844
682.204	0.0146987
682.282	0.0146456
682.360	0.0146812
682.438	0.0148039
682.516	0.0147368
682.594	0.0147679
682.673	0.0148259
682.751	0.0147731
682.829	0.0145927
682.907	0.0145242
682.985	0.0145750
683.063	0.0144013
683.141	0.0141709
683.219	0.0142229
683.298	0.0142543
683.376	0.0140486
683.454	0.0141600
683.532	0.0143141
683.610	0.0142176
683.688	0.0144043
683.766	0.0143531
683.844	0.0147388
683.923	0.0149216
684.001	0.0149712
684.079	0.0149557
684.157	0.0150571
684.235	0.0150369
684.313	0.0150652
684.391	0.0152364
684.469	0.0151126
684.548	0.0151403
684.626	0.0152039
684.704	0.0150763
684.782	0.0149312
684.860	0.0148875
684.938	0.0146423
685.016	0.0145984
685.094	0.0143515
685.173	0.0140792
685.251	0.0138052
685.329	0.0137274
685.407	0.0134507
685.485	0.0133271
685.563	0.0134167
685.641	0.0134077
685.719	0.0135360
685.798	0.0136807
685.876	0.0138816
685.954	0.0142266
686.032	0.0144012
686.110	0.0147682
686.188	0.0152512
686.266	0.0154321
686.344	0.0155690
686.423	0.0157169
686.501	0.0158266
686.579	0.0158333
686.657	0.0158553
686.735	0.0157700
686.813	0.0156912
686.891	0.0155178
686.969	0.0154196
687.048	0.0153238
687.126	0.0150887
687.204	0.0148678
687.282	0.0149431
687.360	0.0147607
687.438	0.0148853
687.516	0.0145000
687.594	0.0144418
687.673	0.0142763
687.751	0.0142284
687.829	0.0140269
687.907	0.0137605
687.985	0.0136263
688.063	0.0134094
688.141	0.0133398
688.219	0.0132114
688.298	0.0130112
688.376	0.0130295
688.454	0.0130964
688.532	0.0131146
688.610	0.0133086
688.688	0.0133098
688.766	0.0134314
688.844	0.0134649
688.923	0.0136214
689.001	0.0141431
689.079	0.0144373
689.157	0.0147315
689.235	0.0149452
689.313	0.0153196
689.391	0.0157015
689.469	0.0160439
689.548	0.0163885
689.626	0.0165897
689.704	0.0168178
689.782	0.0170691
689.860	0.0170737
689.938	0.0171345
690.016	0.0172118
690.094	0.0171338
690.173	0.0171098
690.251	0.0168780
690.329	0.0166853
690.407	0.0166322
690.485	0.0163082
690.563	0.0160634
690.641	0.0159886
690.719	0.0154230
690.798	0.0151159
690.876	0.0146713
690.954	0.0141847
691.032	0.0136433
691.110	0.0128269
691.188	0.0121805
691.266	0.0116249
691.344	0.0110326
691.423	0.0102168
691.501	0.00985847
691.579	0.00952766
691.657	0.00930290
691.735	0.00919365
691.813	0.00918884
691.891	0.00942200
691.969	0.00976501
692.048	0.0101750
692.126	0.0107998
692.204	0.0115607
692.282	0.0122868
692.360	0.0130278
692.438	0.0137640
692.516	0.0147959
692.594	0.0157800
692.673	0.0164608
692.751	0.0175793
692.829	0.0183785
692.907	0.0192866
692.985	0.0202583
693.063	0.0211177
693.141	0.0217015
693.219	0.0223229
693.298	0.0226324
693.376	0.0228745
693.454	0.0229465
693.532	0.0227060
693.610	0.0223209
693.688	0.0217473
693.766	0.0206979
693.844	0.0196568
693.923	0.0184971
694.001	0.0169660
694.079	0.0155079
694.157	0.0138553
694.235	0.0121871
694.313	0.0109630
694.391	0.00965088
694.469	0.00862366
694.548	0.00761055
694.626	0.00698151
694.704	0.00652344
694.782	0.00635155
694.860	0.00634674
694.938	0.00625488
695.016	0.00651527
695.094	0.00672165
695.173	0.00688034
695.251	0.00744881
695.329	0.00785896
695.407	0.00842796
695.485	0.00908173
695.563	0.00976463
695.641	0.0107483
695.719	0.0117268
695.798	0.0129376
695.876	0.0139485
695.954	0.0149541
696.032	0.0163681
696.110	0.0174632
696.188	0.0183090
696.266	0.0192442
696.344	0.0200107
696.423	0.0205170
696.501	0.0207691
696.579	0.0211111
696.657	0.0210936
696.735	0.0211407
696.813	0.0209156
696.891	0.0208891
696.969	0.0207263
697.048	0.0207589
697.126	0.0206750
697.204	0.0206985
697.282	0.0206714
697.360	0.0205273
697.438	0.0204921
697.516	0.0201128
697.594	0.0196449
697.673	0.0190401
697.751	0.0183617
697.829	0.0173647
697.907	0.0162849
697.985	0.0150689
698.063	0.0139368
698.141	0.0127832
698.219	0.0117210
698.298	0.0106851
698.376	0.00973007
698.454	0.00892723
698.532	0.00837860
698.610	0.00790268
698.688	0.00754166
698.766	0.00741379
698.844	0.00744057
698.923	0.00740700
699.001	0.00743217
699.079	0.00748489
699.157	0.00762787
699.235	0.00768700
699.313	0.00771484
699.391	0.00783524
699.469	0.00787041
699.548	0.00788719
699.626	0.00826546
699.704	0.00859695
699.782	0.00924789
699.860	0.00999336
699.938	0.0107229
700.016	0.0119291
700.094	0.0132389
700.173	0.0145425
700.251	0.0157199
700.329	0.0173256
700.407	0.0185722
700.485	0.0195821
700.563	0.0206055
700.641	0.0215793
700.719	0.0222330
700.798	0.0226790
700.876	0.0229991
700.954	0.0232004
701.032	0.0233726
701.110	0.0234542
701.188	0.0234596
701.266	0.0234062
701.344	0.0233856
701.423	0.0231957
701.501	0.0231637
701.579	0.0229031
701.657	0.0223534
701.735	0.0218284
701.813	0.0211937
701.891	0.0201642
701.969	0.0190281
702.048	0.0177627
702.126	0.0164706
702.204	0.0149055
702.282	0.0133702
702.360	0.0119092
702.438	0.0102911
702.516	0.00900558
702.594	0.00771271
702.673	0.00678886
702.751	0.00589706
702.829	0.00535019
702.907	0.00500496
702.985	0.00492386
703.063	0.00511818
703.141	0.00523567
703.219	0.00557411
703.298	0.00602493
703.376	0.00648354
703.454	0.00707581
703.532	0.00759544
703.610	0.00798935
703.688	0.00856804
703.766	0.00898544
703.844	0.00953140
703.923	0.00996590
704.001	0.0105660
704.079	0.0110432
704.157	0.0116772
704.235	0.0123919
704.313	0.0130156
704.391	0.0139474
704.469	0.0149321
704.548	0.0156033
704.626	0.0163778
704.704	0.0174067
704.782	0.0183504
704.860	0.0192442
704.938	0.0198842
705.016	0.0205659
705.094	0.0210722
705.173	0.0217012
705.251	0.0220930
705.329	0.0225423
705.407	0.0228111
705.485	0.0230405
705.563	0.0233804
705.641	0.0236031
705.719	0.0236359
705.798	0.0236919
705.876	0.0235723
705.954	0.0233323
706.032	0.0229607
706.110	0.0224469
706.188	0.0217729
706.266	0.0208483
706.344	0.0197301
706.423	0.0186807
706.501	0.0172903
706.579	0.0161384
706.657	0.0148228
706.735	0.0132988
706.813	0.0121374
706.891	0.0110050
706.969	0.00982681
707.048	0.00874130
707.126	0.00781769
707.204	0.00708405
707.282	0.00644608
707.360	0.00590927
707.438	0.00550468
707.516	0.00511559
707.594	0.00493500
707.673	0.00502159
707.751	0.00514748
707.829	0.00540291
707.907	0.00556824
707.985	0.00625435
708.063	0.00670517
708.141	0.00729759
708.219	0.00812408
708.298	0.00891235
708.376	0.00981178
708.454	0.0107581
708.532	0.0116634
708.610	0.0127156
708.688	0.0136940
708.766	0.0145919
708.844	0.0157055
708.923	0.0163953
709.001	0.0172540
709.079	0.0178594
709.157	0.0183589
709.235	0.0189591
709.313	0.0192462
709.391	0.0197079
709.469	0.0200689
709.548	0.0203007
709.626	0.0205624
709.704	0.0208265
709.782	0.0208297
709.860	0.0209547
709.938	0.0211436
710.016	0.0210816
710.094	0.0209538
710.173	0.0208997
710.251	0.0206258
710.329	0.0202230
710.407	0.0199604
710.485	0.0194199
710.563	0.0189134
710.641	0.0183868
710.719	0.0176472
710.798	0.0172854
710.876	0.0165533
710.954	0.0158657
711.032	0.0151585
711.110	0.0146410
711.188	0.0142706
711.266	0.0138577
711.344	0.0131919
711.423	0.0126847
711.501	0.0125713
711.579	0.0120831
711.657	0.0116249
711.735	0.0114359
711.813	0.0111288
711.891	0.0106445
711.969	0.0106887
712.048	0.0103816
712.126	0.0103383
712.204	0.0101882
712.282	0.0101183
712.360	0.0102652
712.438	0.0103241
712.516	0.0103721
712.594	0.0105392
712.673	0.0107793
712.751	0.0110181
712.829	0.0112287
712.907	0.0114447
712.985	0.0116933
713.063	0.0119955
713.141	0.0122228
713.219	0.0126852
713.298	0.0128781
713.376	0.0131979
713.454	0.0136425
713.532	0.0138560
713.610	0.0142954
713.688	0.0145695
713.766	0.0149739
713.844	0.0152453
713.923	0.0156924
714.001	0.0159901
714.079	0.0164359
714.157	0.0167439
714.235	0.0169646
714.313	0.0173336
714.391	0.0174902
714.469	0.0175460
714.548	0.0175600
714.626	0.0173791
714.704	0.0173302
714.782	0.0170991
714.860	0.0165751
714.938	0.0162701
715.016	0.0160197
715.094	0.0156748
715.173	0.0155264
715.251	0.0151288
715.329	0.0149862
715.407	0.0149868
715.485	0.0147227
715.563	0.0147842
715.641	0.0149982
715.719	0.0151604
715.798	0.0151867
715.876	0.0152699
715.954	0.0154490
716.032	0.0155683
716.110	0.0154557
716.188	0.0155718
716.266	0.0156382
716.344	0.0156520
716.423	0.0156859
716.501	0.0156190
716.579	0.0155468
716.657	0.0153768
716.735	0.0153506
716.813	0.0151214
716.891	0.0148679
716.969	0.0147187
717.048	0.0145066
717.126	0.0144113
717.204	0.0142754
717.282	0.0139999
717.360	0.0137595
717.438	0.0136935
717.516	0.0134794
717.594	0.0135007
717.673	0.0134114
717.751	0.0131437
717.829	0.0130308
717.907	0.0131464
717.985	0.0130813
718.063	0.0130904
718.141	0.0131795
718.219	0.0132056
718.298	0.0132352
718.376	0.0134068
718.454	0.0134008
718.532	0.0133407
718.610	0.0133949
718.688	0.0133302
718.766	0.0132777
718.844	0.0132671
718.923	0.0132113
719.001	0.0131963
719.079	0.0131146
719.157	0.0130794
719.235	0.0131255
719.313	0.0131352
719.391	0.0131487
719.469	0.0134067
719.548	0.0134615
719.626	0.0132768
719.704	0.0136469
719.782	0.0139174
719.860	0.0140450
719.938	0.0141095
720.016	0.0143615
720.094	0.0145261
720.173	0.0146562
720.251	0.0147881
720.329	0.0150220
720.407	0.0152129
720.485	0.0152425
720.563	0.0154822
720.641	0.0156799
720.719	0.0159495
720.798	0.0163768
720.876	0.0163444
720.954	0.0166159
721.032	0.0166442
721.110	0.0167757
721.188	0.0170535
721.266	0.0171243
721.344	0.0168956
721.423	0.0169049
721.501	0.0166418
721.579	0.0165653
721.657	0.0161784
721.735	0.0161295
721.813	0.0158451
721.891	0.0154943
721.969	0.0152670
722.048	0.0152795
722.126	0.0151214
722.204	0.0147840
722.282	0.0146730
722.360	0.0145699
722.438	0.0144427
722.516	0.0145085
722.594	0.0144765
722.673	0.0145735
722.751	0.0145322
722.829	0.0144727
722.907	0.0146351
722.985	0.0144741
723.063	0.0144108
723.141	0.0144044
723.219	0.0143059
723.298	0.0142242
723.376	0.0139858
723.454	0.0140103
723.532	0.0139055
723.610	0.0135751
723.688	0.0133127
723.766	0.0132554
723.844	0.0130846
723.923	0.0131475
724.001	0.0130915
724.079	0.0130869
724.157	0.0131327
724.235	0.0130891
724.313	0.0129359
724.391	0.0131934
724.469	0.0130580
724.548	0.0133273
724.626	0.0133010
724.704	0.0131728
724.782	0.0133585
724.860	0.0134229
724.938	0.0134444
725.016	0.0134846
725.094	0.0134113
725.173	0.0136012
725.251	0.0136254
725.329	0.0137327
725.407	0.0138207
725.485	0.0138216
725.563	0.0138621
725.641	0.0139748
725.719	0.0141740
725.798	0.0142697
725.876	0.0144050
725.954	0.0145189
726.032	0.0146954
726.110	0.0147936
726.188	0.0149884
726.266	0.0151218
726.344	0.0151632
726.423	0.0152601
726.501	0.0155581
726.579	0.0157383
726.657	0.0156889
726.735	0.0157644
726.813	0.0160080
726.891	0.0160079
726.969	0.0161646
727.048	0.0160355
727.126	0.0161787
727.204	0.0162495
727.282	0.0163847
727.360	0.0163070
727.438	0.0161991
727.516	0.0162481
727.594	0.0162399
727.673	0.0163281
727.751	0.0162055
727.829	0.0161136
727.907	0.0160790
727.985	0.0158994
728.063	0.0158990
728.141	0.0157940
728.219	0.0156093
728.298	0.0155183
728.376	0.0152778
728.454	0.0151175
728.532	0.0150668
728.610	0.0150205
728.688	0.0145968
728.766	0.0145957
728.844	0.0142498
728.923	0.0142710
729.001	0.0142113
729.079	0.0139428
729.157	0.0139203
729.235	0.0138316
729.313	0.0137580
729.391	0.0136652
729.469	0.0135706
729.548	0.0135208
729.626	0.0132880
729.704	0.0132361
729.782	0.0130891
729.860	0.0130548
729.938	0.0130651
730.016	0.0129384
730.094	0.0130059
730.173	0.0130092
730.251	0.0127940
730.329	0.0129247
730.407	0.0129860
730.485	0.0129455
730.563	0.0129781
730.641	0.0130954
730.719	0.0131239
730.798	0.0132497
730.876	0.0133985
730.954	0.0133974
731.032	0.0134697
731.110	0.0136124
731.188	0.0137223
731.266	0.0137513
731.344	0.0139888
731.423	0.0141428
731.501	0.0141550
731.579	0.0145140
731.657	0.0145187
731.735	0.0146313
731.813	0.0148131
731.891	0.0151039
731.969	0.0152089
732.048	0.0153754
732.126	0.0153442
732.204	0.0155402
732.282	0.0155197
732.360	0.0155598
732.438	0.0157239
732.516	0.0157595
732.594	0.0158316
732.673	0.0159267
732.751	0.0159248
732.829	0.0160950
732.907	0.0161348
732.985	0.0161579
733.063	0.0162409
733.141	0.0161072
733.219	0.0160339
733.298	0.0160368
733.376	0.0159625
733.454	0.0158865
733.532	0.0158457
733.610	0.0157698
733.688	0.0156194
733.766	0.0155283
733.844	0.0153345
733.923	0.0153526
734.001	0.0153773
734.079	0.0151760
734.157	0.0150352
734.235	0.0151322
734.313	0.0149747
734.391	0.0149906
734.469	0.0147839
734.548	0.0146011
734.626	0.0145277
734.704	0.0143298
734.782	0.0142516
734.860	0.0142132
734.938	0.0140828
735.016	0.0139944
735.094	0.0138846
735.173	0.0137466
735.251	0.0138011
735.329	0.0136031
735.407	0.0136269
