05/14/2022	19:16:40	Ver.	4.1	UNKNOWN
Optical Delay	650.016352	Delta X		0.078125	Sweeps	1	Scan Rate	0/0
Coordinates	Axis 1	NaN	Axis 2	NaN	Axis 3	NaN	Axis 4	NaN	Axis 5	NaN	Axis 6	0.000000
TX Power	0.000000	RX Power	0.000000

650.016	0.0144622
650.094	0.0145938
650.173	0.0146108
650.251	0.0144617
650.329	0.0145355
650.407	0.0145291
650.485	0.0144576
650.563	0.0145104
650.641	0.0145183
650.719	0.0145129
650.798	0.0144733
650.876	0.0144740
650.954	0.0143266
651.032	0.0144338
651.110	0.0145255
651.188	0.0143299
651.266	0.0145213
651.344	0.0144968
651.423	0.0144360
651.501	0.0144866
651.579	0.0145074
651.657	0.0143193
651.735	0.0144226
651.813	0.0146019
651.891	0.0146246
651.969	0.0145073
652.048	0.0144161
652.126	0.0144074
652.204	0.0145596
652.282	0.0145676
652.360	0.0144532
652.438	0.0145737
652.516	0.0145065
652.594	0.0143961
652.673	0.0144843
652.751	0.0145319
652.829	0.0144898
652.907	0.0144341
652.985	0.0144618
653.063	0.0144103
653.141	0.0145365
653.219	0.0145399
653.298	0.0144083
653.376	0.0143044
653.454	0.0144830
653.532	0.0144149
653.610	0.0144218
653.688	0.0144334
653.766	0.0144213
653.844	0.0144146
653.923	0.0146191
654.001	0.0146125
654.079	0.0144726
654.157	0.0144472
654.235	0.0145599
654.313	0.0144756
654.391	0.0143183
654.469	0.0143710
654.548	0.0144908
654.626	0.0144899
654.704	0.0145238
654.782	0.0145257
654.860	0.0144314
654.938	0.0144924
655.016	0.0145502
655.094	0.0144003
655.173	0.0143153
655.251	0.0143550
655.329	0.0144923
655.407	0.0144646
655.485	0.0145512
655.563	0.0144607
655.641	0.0145596
655.719	0.0146207
655.798	0.0145901
655.876	0.0144024
655.954	0.0143922
656.032	0.0144757
656.110	0.0143201
656.188	0.0145383
656.266	0.0144636
656.344	0.0144585
656.423	0.0144582
656.501	0.0145376
656.579	0.0145454
656.657	0.0145555
656.735	0.0144440
656.813	0.0143654
656.891	0.0144411
656.969	0.0144948
657.048	0.0145032
657.126	0.0145336
657.204	0.0144569
657.282	0.0145699
657.360	0.0144706
657.438	0.0145246
657.516	0.0144900
657.594	0.0145454
657.673	0.0143803
657.751	0.0144739
657.829	0.0144929
657.907	0.0144112
657.985	0.0144461
658.063	0.0145727
658.141	0.0145275
658.219	0.0145164
658.298	0.0144233
658.376	0.0145434
658.454	0.0144468
658.532	0.0143580
658.610	0.0143881
658.688	0.0142908
658.766	0.0143857
658.844	0.0145081
658.923	0.0145016
659.001	0.0146027
659.079	0.0143978
659.157	0.0143500
659.235	0.0145329
659.313	0.0145384
659.391	0.0144521
659.469	0.0145516
659.548	0.0144759
659.626	0.0144901
659.704	0.0144250
659.782	0.0144966
659.860	0.0142911
659.938	0.0145230
660.016	0.0144885
660.094	0.0145035
660.173	0.0144540
660.251	0.0143605
660.329	0.0145180
660.407	0.0144149
660.485	0.0144617
660.563	0.0142607
660.641	0.0145045
660.719	0.0145055
660.798	0.0144115
660.876	0.0144393
660.954	0.0144061
661.032	0.0144508
661.110	0.0144952
661.188	0.0144255
661.266	0.0143797
661.344	0.0144882
661.423	0.0145298
661.501	0.0144329
661.579	0.0145114
661.657	0.0144511
661.735	0.0145123
661.813	0.0143472
661.891	0.0144272
661.969	0.0144421
662.048	0.0143684
662.126	0.0143595
662.204	0.0144307
662.282	0.0145699
662.360	0.0143656
662.438	0.0143901
662.516	0.0144141
662.594	0.0143716
662.673	0.0144725
662.751	0.0144412
662.829	0.0144715
662.907	0.0144582
662.985	0.0143796
663.063	0.0144257
663.141	0.0142809
663.219	0.0143898
663.298	0.0144682
663.376	0.0144299
663.454	0.0144474
663.532	0.0143979
663.610	0.0145958
663.688	0.0145873
663.766	0.0142857
663.844	0.0143391
663.923	0.0144103
664.001	0.0145478
664.079	0.0145131
664.157	0.0145319
664.235	0.0143880
664.313	0.0144142
664.391	0.0145538
664.469	0.0144787
664.548	0.0142088
664.626	0.0145087
664.704	0.0144851
664.782	0.0145065
664.860	0.0145419
664.938	0.0145247
665.016	0.0143594
665.094	0.0142963
665.173	0.0144573
665.251	0.0145796
665.329	0.0145936
665.407	0.0144551
665.485	0.0146880
665.563	0.0145683
665.641	0.0144806
665.719	0.0145406
665.798	0.0144638
665.876	0.0146122
665.954	0.0144063
666.032	0.0144358
666.110	0.0145184
666.188	0.0144509
666.266	0.0144720
666.344	0.0144695
666.423	0.0145261
666.501	0.0144907
666.579	0.0143869
666.657	0.0144171
666.735	0.0144126
666.813	0.0145006
666.891	0.0143966
666.969	0.0144568
667.048	0.0146551
667.126	0.0144051
667.204	0.0144525
667.282	0.0143997
667.360	0.0144714
667.438	0.0145068
667.516	0.0144824
667.594	0.0144716
667.673	0.0144589
667.751	0.0145396
667.829	0.0143016
667.907	0.0144777
667.985	0.0144984
668.063	0.0143628
668.141	0.0144169
668.219	0.0144738
668.298	0.0143621
668.376	0.0144231
668.454	0.0144702
668.532	0.0143772
668.610	0.0144328
668.688	0.0145458
668.766	0.0144280
668.844	0.0144510
668.923	0.0144675
669.001	0.0143660
669.079	0.0143964
669.157	0.0144489
669.235	0.0144737
669.313	0.0144337
669.391	0.0143502
669.469	0.0143697
669.548	0.0144550
669.626	0.0145827
669.704	0.0144226
669.782	0.0143675
669.860	0.0145034
669.938	0.0144745
670.016	0.0144294
670.094	0.0143235
670.173	0.0144147
670.251	0.0143962
670.329	0.0144226
670.407	0.0144637
670.485	0.0144401
670.563	0.0144011
670.641	0.0143990
670.719	0.0144261
670.798	0.0143893
670.876	0.0145405
670.954	0.0144762
671.032	0.0144423
671.110	0.0144116
671.188	0.0143542
671.266	0.0143333
671.344	0.0144609
671.423	0.0144537
671.501	0.0144795
671.579	0.0144773
671.657	0.0143032
671.735	0.0144912
671.813	0.0144044
671.891	0.0144128
671.969	0.0144291
672.048	0.0142516
672.126	0.0144498
672.204	0.0144012
672.282	0.0143941
672.360	0.0144386
672.438	0.0145135
672.516	0.0144837
672.594	0.0143819
672.673	0.0144293
672.751	0.0144183
672.829	0.0144191
672.907	0.0144717
672.985	0.0144763
673.063	0.0145451
673.141	0.0143549
673.219	0.0144778
673.298	0.0144401
673.376	0.0144486
673.454	0.0144654
673.532	0.0144405
673.610	0.0144630
673.688	0.0145704
673.766	0.0145123
673.844	0.0144107
673.923	0.0144722
674.001	0.0145361
674.079	0.0144747
674.157	0.0145954
674.235	0.0144178
674.313	0.0145087
674.391	0.0146679
674.469	0.0145358
674.548	0.0144306
674.626	0.0145444
674.704	0.0144979
674.782	0.0145134
674.860	0.0144037
674.938	0.0144526
675.016	0.0144527
675.094	0.0145094
675.173	0.0145407
675.251	0.0144453
675.329	0.0144919
675.407	0.0144073
675.485	0.0145874
675.563	0.0145166
675.641	0.0144588
675.719	0.0144420
675.798	0.0143466
675.876	0.0144849
675.954	0.0144568
676.032	0.0144944
676.110	0.0145041
676.188	0.0144019
676.266	0.0144953
676.344	0.0146206
676.423	0.0144465
676.501	0.0144295
676.579	0.0144698
676.657	0.0145852
676.735	0.0144978
676.813	0.0144530
676.891	0.0144239
676.969	0.0146223
677.048	0.0144144
677.126	0.0145035
677.204	0.0145397
677.282	0.0144784
677.360	0.0144722
677.438	0.0146084
677.516	0.0143913
677.594	0.0146387
677.673	0.0145717
677.751	0.0143349
677.829	0.0145527
677.907	0.0144948
677.985	0.0145548
678.063	0.0144533
678.141	0.0143457
678.219	0.0144841
678.298	0.0144844
678.376	0.0145422
678.454	0.0144302
678.532	0.0145094
678.610	0.0144272
678.688	0.0144901
678.766	0.0144701
678.844	0.0144742
678.923	0.0143816
679.001	0.0143921
679.079	0.0146034
679.157	0.0145111
679.235	0.0144013
679.313	0.0144025
679.391	0.0145212
679.469	0.0144925
679.548	0.0145084
679.626	0.0144926
679.704	0.0143299
679.782	0.0144998
679.860	0.0144823
679.938	0.0145255
680.016	0.0145268
680.094	0.0144699
680.173	0.0146154
680.251	0.0145933
680.329	0.0145091
680.407	0.0144443
680.485	0.0144307
680.563	0.0143237
680.641	0.0145399
680.719	0.0144867
680.798	0.0144170
680.876	0.0144000
680.954	0.0143038
681.032	0.0143319
681.110	0.0145100
681.188	0.0145559
681.266	0.0143925
681.344	0.0146555
681.423	0.0145422
681.501	0.0146683
681.579	0.0145576
681.657	0.0147098
681.735	0.0146626
681.813	0.0146517
681.891	0.0145999
681.969	0.0146392
682.048	0.0143607
682.126	0.0143134
682.204	0.0141701
682.282	0.0142336
682.360	0.0140816
682.438	0.0140296
682.516	0.0140379
682.594	0.0141272
682.673	0.0141283
682.751	0.0141505
682.829	0.0143984
682.907	0.0145734
682.985	0.0147292
683.063	0.0149037
683.141	0.0150426
683.219	0.0150512
683.298	0.0151112
683.376	0.0152868
683.454	0.0151168
683.532	0.0151663
683.610	0.0149863
683.688	0.0147807
683.766	0.0147465
683.844	0.0145866
683.923	0.0143948
684.001	0.0142901
684.079	0.0141409
684.157	0.0141476
684.235	0.0139711
684.313	0.0139494
684.391	0.0138299
684.469	0.0136837
684.548	0.0135566
684.626	0.0135561
684.704	0.0135783
684.782	0.0135095
684.860	0.0134893
684.938	0.0138814
685.016	0.0138502
685.094	0.0140409
685.173	0.0143987
685.251	0.0148183
685.329	0.0151985
685.407	0.0155116
685.485	0.0157343
685.563	0.0157927
685.641	0.0161031
685.719	0.0160669
685.798	0.0158842
685.876	0.0160680
685.954	0.0158191
686.032	0.0156139
686.110	0.0152428
686.188	0.0151237
686.266	0.0147721
686.344	0.0146218
686.423	0.0143656
686.501	0.0141678
686.579	0.0139314
686.657	0.0137962
686.735	0.0135129
686.813	0.0134085
686.891	0.0132541
686.969	0.0132079
687.048	0.0131525
687.126	0.0131187
687.204	0.0129623
687.282	0.0130581
687.360	0.0130602
687.438	0.0132393
687.516	0.0135271
687.594	0.0136290
687.673	0.0139436
687.751	0.0143237
687.829	0.0144179
687.907	0.0147379
687.985	0.0148448
688.063	0.0149194
688.141	0.0150144
688.219	0.0150572
688.298	0.0151132
688.376	0.0152203
688.454	0.0153300
688.532	0.0153105
688.610	0.0155207
688.688	0.0155794
688.766	0.0156828
688.844	0.0158965
688.923	0.0158379
689.001	0.0158549
689.079	0.0158767
689.157	0.0158815
689.235	0.0157740
689.313	0.0158167
689.391	0.0156151
689.469	0.0153260
689.548	0.0151472
689.626	0.0148082
689.704	0.0145125
689.782	0.0143555
689.860	0.0141498
689.938	0.0138262
690.016	0.0135636
690.094	0.0133371
690.173	0.0133378
690.251	0.0130931
690.329	0.0130952
690.407	0.0127432
690.485	0.0126160
690.563	0.0125117
690.641	0.0123878
690.719	0.0122623
690.798	0.0119675
690.876	0.0120672
690.954	0.0120444
691.032	0.0120371
691.110	0.0120399
691.188	0.0122179
691.266	0.0122169
691.344	0.0126487
691.423	0.0128535
691.501	0.0131575
691.579	0.0136476
691.657	0.0139200
691.735	0.0143404
691.813	0.0150806
691.891	0.0153916
691.969	0.0160178
692.048	0.0165852
692.126	0.0171905
692.204	0.0177903
692.282	0.0183272
692.360	0.0187464
692.438	0.0192050
692.516	0.0194144
692.594	0.0195853
692.673	0.0193681
692.751	0.0193644
692.829	0.0191800
692.907	0.0187756
692.985	0.0183624
693.063	0.0178301
693.141	0.0172874
693.219	0.0165467
693.298	0.0159008
693.376	0.0152238
693.454	0.0145454
693.532	0.0137147
693.610	0.0130260
693.688	0.0122314
693.766	0.0116158
693.844	0.0109114
693.923	0.0102198
694.001	0.00954536
694.079	0.00897636
694.157	0.00853058
694.235	0.00798157
694.313	0.00763367
694.391	0.00711906
694.469	0.00692360
694.548	0.00683792
694.626	0.00711800
694.704	0.00741150
694.782	0.00791328
694.860	0.00885201
694.938	0.00960014
695.016	0.0106474
695.094	0.0118673
695.173	0.0131865
695.251	0.0143145
695.329	0.0157471
695.407	0.0168840
695.485	0.0180967
695.563	0.0191196
695.641	0.0201196
695.719	0.0208113
695.798	0.0214262
695.876	0.0218244
695.954	0.0222264
696.032	0.0224187
696.110	0.0224730
696.188	0.0225680
696.266	0.0226434
696.344	0.0223070
696.423	0.0222015
696.501	0.0218661
696.579	0.0212772
696.657	0.0207195
696.735	0.0201940
696.813	0.0193030
696.891	0.0183060
696.969	0.0172780
697.048	0.0160471
697.126	0.0146276
697.204	0.0133009
697.282	0.0119882
697.360	0.0106836
697.438	0.00946205
697.516	0.00854599
697.594	0.00763123
697.673	0.00699905
697.751	0.00667244
697.829	0.00653381
697.907	0.00674866
697.985	0.00698608
698.063	0.00737534
698.141	0.00792824
698.219	0.00860077
698.298	0.00905045
698.376	0.00982399
698.454	0.0102195
698.532	0.0105531
698.610	0.0108426
698.688	0.0110964
698.766	0.0109955
698.844	0.0110773
698.923	0.0109812
699.001	0.0114555
699.079	0.0116811
699.157	0.0123360
699.235	0.0130030
699.313	0.0139225
699.391	0.0148979
699.469	0.0155924
699.548	0.0166211
699.626	0.0175895
699.704	0.0181852
699.782	0.0187556
699.860	0.0192924
699.938	0.0196524
700.016	0.0198159
700.094	0.0200711
700.173	0.0202749
700.251	0.0201926
700.329	0.0202836
700.407	0.0204995
700.485	0.0205315
700.563	0.0207289
700.641	0.0211318
700.719	0.0213325
700.798	0.0215823
700.876	0.0217691
700.954	0.0215542
701.032	0.0212537
701.110	0.0206922
701.188	0.0200513
701.266	0.0191199
701.344	0.0178917
701.423	0.0167063
701.501	0.0154607
701.579	0.0140926
701.657	0.0128111
701.735	0.0116113
701.813	0.0103233
701.891	0.00925026
701.969	0.00835030
702.048	0.00763214
702.126	0.00702621
702.204	0.00676262
702.282	0.00665588
702.360	0.00646416
702.438	0.00650352
702.516	0.00672279
702.594	0.00681839
702.673	0.00707161
702.751	0.00751282
702.829	0.00799179
702.907	0.00822243
702.985	0.00861687
703.063	0.00911606
703.141	0.00955551
703.219	0.00986740
703.298	0.0103742
703.376	0.0107477
703.454	0.0111317
703.532	0.0116192
703.610	0.0122946
703.688	0.0128898
703.766	0.0138150
703.844	0.0144750
703.923	0.0153756
704.001	0.0163241
704.079	0.0170105
704.157	0.0180705
704.235	0.0188145
704.313	0.0196093
704.391	0.0200741
704.469	0.0205347
704.548	0.0210403
704.626	0.0215015
704.704	0.0216892
704.782	0.0219126
704.860	0.0219450
704.938	0.0220797
705.016	0.0221861
705.094	0.0222710
705.173	0.0221268
705.251	0.0224684
705.329	0.0225242
705.407	0.0223090
705.485	0.0221379
705.563	0.0216530
705.641	0.0211053
705.719	0.0203189
705.798	0.0195325
705.876	0.0183385
705.954	0.0172407
706.032	0.0159053
706.110	0.0146349
706.188	0.0133548
706.266	0.0120001
706.344	0.0105655
706.423	0.00944771
706.501	0.00822670
706.579	0.00705322
706.657	0.00620697
706.735	0.00556686
706.813	0.00500534
706.891	0.00477486
706.969	0.00479980
707.048	0.00486542
707.126	0.00529411
707.204	0.00587311
707.282	0.00635834
707.360	0.00708862
707.438	0.00776886
707.516	0.00829720
707.594	0.00885719
707.673	0.00939713
707.751	0.00986015
707.829	0.0102445
707.907	0.0106766
707.985	0.0110304
708.063	0.0115768
708.141	0.0121516
708.219	0.0125981
708.298	0.0132540
708.376	0.0138672
708.454	0.0144856
708.532	0.0151933
708.610	0.0160368
708.688	0.0167551
708.766	0.0174919
708.844	0.0182345
708.923	0.0189912
709.001	0.0197123
709.079	0.0203396
709.157	0.0206580
709.235	0.0210708
709.313	0.0214261
709.391	0.0216000
709.469	0.0218700
709.548	0.0218458
709.626	0.0221508
709.704	0.0221186
709.782	0.0221429
709.860	0.0222498
709.938	0.0218849
710.016	0.0216105
710.094	0.0213091
710.173	0.0210753
710.251	0.0202005
710.329	0.0195481
710.407	0.0187889
710.485	0.0180376
710.563	0.0169276
710.641	0.0159740
710.719	0.0148341
710.798	0.0138893
710.876	0.0127036
710.954	0.0117710
711.032	0.0108433
711.110	0.00988159
711.188	0.00915001
711.266	0.00865692
711.344	0.00803459
711.423	0.00776657
711.501	0.00755272
711.579	0.00764946
711.657	0.00758751
711.735	0.00771095
711.813	0.00780273
711.891	0.00783989
711.969	0.00788765
712.048	0.00816742
712.126	0.00831581
712.204	0.00837837
712.282	0.00867500
712.360	0.00897232
712.438	0.00942314
712.516	0.00988182
712.594	0.0101824
712.673	0.0107066
712.751	0.0113705
712.829	0.0120427
712.907	0.0126286
712.985	0.0131826
713.063	0.0139725
713.141	0.0149689
713.219	0.0154012
713.298	0.0159863
713.376	0.0167319
713.454	0.0173972
713.532	0.0176960
713.610	0.0182227
713.688	0.0184178
713.766	0.0187733
713.844	0.0191231
713.923	0.0191080
714.001	0.0192179
714.079	0.0192863
714.157	0.0193060
714.235	0.0191728
714.313	0.0191174
714.391	0.0189245
714.469	0.0187665
714.548	0.0184499
714.626	0.0184500
714.704	0.0181245
714.782	0.0178312
714.860	0.0174167
714.938	0.0172066
715.016	0.0168687
715.094	0.0165556
715.173	0.0163012
715.251	0.0158575
715.329	0.0154518
715.407	0.0151965
715.485	0.0147791
715.563	0.0146461
715.641	0.0144509
715.719	0.0143128
715.798	0.0140146
715.876	0.0139358
715.954	0.0137700
716.032	0.0137115
716.110	0.0136088
716.188	0.0135985
716.266	0.0133156
716.344	0.0130796
716.423	0.0129747
716.501	0.0128929
716.579	0.0126281
716.657	0.0123206
716.735	0.0121600
716.813	0.0120631
716.891	0.0116454
716.969	0.0115534
717.048	0.0115274
717.126	0.0113794
717.204	0.0113033
717.282	0.0111749
717.360	0.0115537
717.438	0.0116161
717.516	0.0117722
717.594	0.0120190
717.673	0.0122912
717.751	0.0125401
717.829	0.0127633
717.907	0.0130256
717.985	0.0132459
718.063	0.0134042
718.141	0.0135530
718.219	0.0139393
718.298	0.0138937
718.376	0.0139629
718.454	0.0142094
718.532	0.0145076
718.610	0.0147421
718.688	0.0148933
718.766	0.0154237
718.844	0.0154310
718.923	0.0156925
719.001	0.0159106
719.079	0.0160484
719.157	0.0162894
719.235	0.0163669
719.313	0.0165143
719.391	0.0163940
719.469	0.0162401
719.548	0.0161256
719.626	0.0160184
719.704	0.0157502
719.782	0.0156604
719.860	0.0154228
719.938	0.0151138
720.016	0.0150642
720.094	0.0150967
720.173	0.0150217
720.251	0.0149926
720.329	0.0152902
720.407	0.0154459
720.485	0.0157038
720.563	0.0158246
720.641	0.0159863
720.719	0.0160979
720.798	0.0163046
720.876	0.0162968
720.954	0.0164449
721.032	0.0161974
721.110	0.0162415
721.188	0.0160586
721.266	0.0158994
721.344	0.0155163
721.423	0.0151717
721.501	0.0149127
721.579	0.0145903
721.657	0.0144245
721.735	0.0140322
721.813	0.0137732
721.891	0.0135143
721.969	0.0136027
722.048	0.0135667
722.126	0.0135328
722.204	0.0135172
722.282	0.0135226
722.360	0.0136118
722.438	0.0136609
722.516	0.0136060
722.594	0.0135278
722.673	0.0136001
722.751	0.0136068
722.829	0.0134675
722.907	0.0132946
722.985	0.0134174
723.063	0.0133478
723.141	0.0132599
723.219	0.0131457
723.298	0.0132697
723.376	0.0133547
723.454	0.0133274
723.532	0.0132941
723.610	0.0134955
723.688	0.0135374
723.766	0.0136603
723.844	0.0138169
723.923	0.0139140
724.001	0.0140163
724.079	0.0137832
724.157	0.0137862
724.235	0.0138426
724.313	0.0138364
724.391	0.0137952
724.469	0.0137103
724.548	0.0136430
724.626	0.0137305
724.704	0.0136541
724.782	0.0137370
724.860	0.0139662
724.938	0.0139195
725.016	0.0140434
725.094	0.0142180
725.173	0.0143248
725.251	0.0144061
725.329	0.0146545
725.407	0.0147990
725.485	0.0149269
725.563	0.0150225
725.641	0.0151992
725.719	0.0151491
725.798	0.0152477
725.876	0.0153190
725.954	0.0153405
726.032	0.0152035
726.110	0.0152554
726.188	0.0153637
726.266	0.0154952
726.344	0.0155362
726.423	0.0157908
726.501	0.0159313
726.579	0.0161445
726.657	0.0161935
726.735	0.0165311
726.813	0.0165999
726.891	0.0165285
726.969	0.0167148
727.048	0.0166050
727.126	0.0165720
727.204	0.0164877
727.282	0.0162699
727.360	0.0159689
727.438	0.0158352
727.516	0.0157515
727.594	0.0153802
727.673	0.0151991
727.751	0.0150477
727.829	0.0147342
727.907	0.0145770
727.985	0.0143948
728.063	0.0142322
728.141	0.0140741
728.219	0.0141106
728.298	0.0139599
728.376	0.0139553
728.454	0.0138094
728.532	0.0136530
728.610	0.0133865
728.688	0.0132556
728.766	0.0130449
728.844	0.0129200
728.923	0.0128606
729.001	0.0128088
729.079	0.0125708
729.157	0.0128970
729.235	0.0125684
729.313	0.0124888
729.391	0.0126988
729.469	0.0128131
729.548	0.0127628
729.626	0.0128284
729.704	0.0129180
729.782	0.0129327
729.860	0.0129437
729.938	0.0129719
730.016	0.0128924
730.094	0.0128637
730.173	0.0128664
730.251	0.0127995
730.329	0.0128998
730.407	0.0130272
730.485	0.0129487
730.563	0.0130148
730.641	0.0133163
730.719	0.0133501
730.798	0.0135735
730.876	0.0139874
730.954	0.0143637
731.032	0.0145924
731.110	0.0149658
731.188	0.0153468
731.266	0.0156763
731.344	0.0157991
731.423	0.0161285
731.501	0.0164948
731.579	0.0162753
731.657	0.0163953
731.735	0.0165191
731.813	0.0165824
731.891	0.0163931
731.969	0.0165136
732.048	0.0166078
732.126	0.0165827
732.204	0.0164816
732.282	0.0163532
732.360	0.0162638
732.438	0.0163504
732.516	0.0161639
732.594	0.0161359
732.673	0.0157994
732.751	0.0158786
732.829	0.0156535
732.907	0.0153489
732.985	0.0152061
733.063	0.0150311
733.141	0.0150249
733.219	0.0147594
733.298	0.0146524
733.376	0.0145579
733.454	0.0143211
733.532	0.0143273
733.610	0.0143021
733.688	0.0140008
733.766	0.0139812
733.844	0.0138776
733.923	0.0137698
734.001	0.0136249
734.079	0.0135580
734.157	0.0136023
734.235	0.0134658
734.313	0.0136089
734.391	0.0135754
734.469	0.0136347
734.548	0.0137578
734.626	0.0136245
734.704	0.0137543
734.782	0.0135497
734.860	0.0135291
734.938	0.0134713
735.016	0.0134147
735.094	0.0134717
735.173	0.0134818
735.251	0.0133905
735.329	0.0132831
735.407	0.0132314
