05/14/2022	19:05:34	Ver.	4.1	UNKNOWN
Optical Delay	650.016352	Delta X		0.078125	Sweeps	1	Scan Rate	0/0
Coordinates	Axis 1	NaN	Axis 2	NaN	Axis 3	NaN	Axis 4	NaN	Axis 5	NaN	Axis 6	0.000000
TX Power	0.000000	RX Power	0.000000

650.016	0.0149374
650.094	0.0148682
650.173	0.0149758
650.251	0.0149612
650.329	0.0149134
650.407	0.0148519
650.485	0.0149907
650.563	0.0149576
650.641	0.0150400
650.719	0.0150175
650.798	0.0149226
650.876	0.0150804
650.954	0.0148976
651.032	0.0150007
651.110	0.0149409
651.188	0.0149637
651.266	0.0148091
651.344	0.0148145
651.423	0.0148521
651.501	0.0149168
651.579	0.0149458
651.657	0.0150037
651.735	0.0149499
651.813	0.0148773
651.891	0.0149613
651.969	0.0151271
652.048	0.0149396
652.126	0.0150353
652.204	0.0150240
652.282	0.0148724
652.360	0.0148780
652.438	0.0149713
652.516	0.0149094
652.594	0.0151023
652.673	0.0150633
652.751	0.0148425
652.829	0.0150070
652.907	0.0149490
652.985	0.0150233
653.063	0.0150615
653.141	0.0149338
653.219	0.0149364
653.298	0.0150140
653.376	0.0150932
653.454	0.0149734
653.532	0.0150700
653.610	0.0150208
653.688	0.0150476
653.766	0.0149735
653.844	0.0149703
653.923	0.0149445
654.001	0.0150066
654.079	0.0149312
654.157	0.0150359
654.235	0.0149695
654.313	0.0149454
654.391	0.0148327
654.469	0.0148986
654.548	0.0150742
654.626	0.0148757
654.704	0.0148146
654.782	0.0148450
654.860	0.0150257
654.938	0.0150872
655.016	0.0149080
655.094	0.0149442
655.173	0.0150837
655.251	0.0149103
655.329	0.0149312
655.407	0.0150582
655.485	0.0149672
655.563	0.0149422
655.641	0.0149302
655.719	0.0151028
655.798	0.0148643
655.876	0.0149725
655.954	0.0149816
656.032	0.0149490
656.110	0.0150320
656.188	0.0150459
656.266	0.0150500
656.344	0.0149477
656.423	0.0149250
656.501	0.0148764
656.579	0.0150358
656.657	0.0150048
656.735	0.0150586
656.813	0.0149306
656.891	0.0149751
656.969	0.0150153
657.048	0.0150195
657.126	0.0149345
657.204	0.0148785
657.282	0.0149953
657.360	0.0149889
657.438	0.0148633
657.516	0.0149111
657.594	0.0150170
657.673	0.0150407
657.751	0.0149152
657.829	0.0148656
657.907	0.0148767
657.985	0.0149286
658.063	0.0150936
658.141	0.0150011
658.219	0.0149284
658.298	0.0150485
658.376	0.0149679
658.454	0.0150114
658.532	0.0148827
658.610	0.0149385
658.688	0.0150321
658.766	0.0149061
658.844	0.0149979
658.923	0.0150222
659.001	0.0150487
659.079	0.0150083
659.157	0.0151249
659.235	0.0149779
659.313	0.0149009
659.391	0.0149261
659.469	0.0150871
659.548	0.0149737
659.626	0.0150712
659.704	0.0149854
659.782	0.0147802
659.860	0.0149423
659.938	0.0149973
660.016	0.0149448
660.094	0.0149548
660.173	0.0149548
660.251	0.0149454
660.329	0.0150676
660.407	0.0150104
660.485	0.0151147
660.563	0.0149671
660.641	0.0148746
660.719	0.0148302
660.798	0.0149986
660.876	0.0149831
660.954	0.0151218
661.032	0.0151713
661.110	0.0149196
661.188	0.0148576
661.266	0.0148743
661.344	0.0150094
661.423	0.0149850
661.501	0.0149747
661.579	0.0149561
661.657	0.0149664
661.735	0.0150535
661.813	0.0149204
661.891	0.0149338
661.969	0.0149339
662.048	0.0149495
662.126	0.0148341
662.204	0.0149739
662.282	0.0149971
662.360	0.0149166
662.438	0.0148990
662.516	0.0151686
662.594	0.0149924
662.673	0.0149031
662.751	0.0149076
662.829	0.0149908
662.907	0.0149758
662.985	0.0149290
663.063	0.0150851
663.141	0.0149842
663.219	0.0149287
663.298	0.0149609
663.376	0.0149099
663.454	0.0149012
663.532	0.0150568
663.610	0.0148633
663.688	0.0149820
663.766	0.0149508
663.844	0.0148604
663.923	0.0149995
664.001	0.0149702
664.079	0.0150010
664.157	0.0149895
664.235	0.0149218
664.313	0.0148904
664.391	0.0149281
664.469	0.0149960
664.548	0.0150958
664.626	0.0149763
664.704	0.0150123
664.782	0.0149731
664.860	0.0150338
664.938	0.0150009
665.016	0.0150380
665.094	0.0149885
665.173	0.0150977
665.251	0.0149966
665.329	0.0149567
665.407	0.0148692
665.485	0.0149834
665.563	0.0149817
665.641	0.0148042
665.719	0.0149649
665.798	0.0150155
665.876	0.0149142
665.954	0.0150126
666.032	0.0149213
666.110	0.0149803
666.188	0.0149431
666.266	0.0148829
666.344	0.0149399
666.423	0.0149869
666.501	0.0149407
666.579	0.0149242
666.657	0.0150933
666.735	0.0149149
666.813	0.0149914
666.891	0.0149418
666.969	0.0149228
667.048	0.0149806
667.126	0.0149038
667.204	0.0150268
667.282	0.0149800
667.360	0.0148418
667.438	0.0148728
667.516	0.0150845
667.594	0.0149174
667.673	0.0150675
667.751	0.0149197
667.829	0.0149363
667.907	0.0148155
667.985	0.0150171
668.063	0.0150694
668.141	0.0149617
668.219	0.0148726
668.298	0.0148849
668.376	0.0148856
668.454	0.0149679
668.532	0.0150388
668.610	0.0148966
668.688	0.0148476
668.766	0.0148729
668.844	0.0149840
668.923	0.0149639
669.001	0.0150089
669.079	0.0150066
669.157	0.0149989
669.235	0.0149237
669.313	0.0150362
669.391	0.0150774
669.469	0.0148328
669.548	0.0149340
669.626	0.0149078
669.704	0.0149648
669.782	0.0150518
669.860	0.0149802
669.938	0.0150114
670.016	0.0150865
670.094	0.0149272
670.173	0.0150344
670.251	0.0149845
670.329	0.0149063
670.407	0.0149566
670.485	0.0149431
670.563	0.0149169
670.641	0.0150037
670.719	0.0150593
670.798	0.0149834
670.876	0.0150078
670.954	0.0150043
671.032	0.0150894
671.110	0.0149832
671.188	0.0150772
671.266	0.0151691
671.344	0.0149875
671.423	0.0148744
671.501	0.0149995
671.579	0.0149863
671.657	0.0150076
671.735	0.0149665
671.813	0.0150796
671.891	0.0150412
671.969	0.0150594
672.048	0.0149812
672.126	0.0150051
672.204	0.0149714
672.282	0.0150168
672.360	0.0149460
672.438	0.0149355
672.516	0.0151117
672.594	0.0150872
672.673	0.0149396
672.751	0.0148667
672.829	0.0150132
672.907	0.0149980
672.985	0.0149763
673.063	0.0148370
673.141	0.0149918
673.219	0.0149709
673.298	0.0149127
673.376	0.0150069
673.454	0.0148682
673.532	0.0147458
673.610	0.0148061
673.688	0.0149935
673.766	0.0150992
673.844	0.0148700
673.923	0.0149874
674.001	0.0150023
674.079	0.0149335
674.157	0.0150093
674.235	0.0148904
674.313	0.0148321
674.391	0.0148816
674.469	0.0149225
674.548	0.0149639
674.626	0.0148866
674.704	0.0148669
674.782	0.0148969
674.860	0.0149075
674.938	0.0148455
675.016	0.0148462
675.094	0.0147438
675.173	0.0148430
675.251	0.0148976
675.329	0.0148653
675.407	0.0148947
675.485	0.0149709
675.563	0.0149277
675.641	0.0148754
675.719	0.0148433
675.798	0.0148869
675.876	0.0149306
675.954	0.0149499
676.032	0.0148016
676.110	0.0149092
676.188	0.0148852
676.266	0.0149490
676.344	0.0149117
676.423	0.0148700
676.501	0.0148241
676.579	0.0147979
676.657	0.0148581
676.735	0.0149356
676.813	0.0149211
676.891	0.0147585
676.969	0.0147260
677.048	0.0148811
677.126	0.0149102
677.204	0.0147798
677.282	0.0147902
677.360	0.0148122
677.438	0.0147989
677.516	0.0147208
677.594	0.0148263
677.673	0.0148616
677.751	0.0148447
677.829	0.0147822
677.907	0.0148493
677.985	0.0147341
678.063	0.0148677
678.141	0.0148456
678.219	0.0147685
678.298	0.0148260
678.376	0.0148241
678.454	0.0148602
678.532	0.0148030
678.610	0.0147517
678.688	0.0149012
678.766	0.0148766
678.844	0.0148445
678.923	0.0147896
679.001	0.0149654
679.079	0.0148627
679.157	0.0149176
679.235	0.0147549
679.313	0.0147790
679.391	0.0150008
679.469	0.0149816
679.548	0.0148737
679.626	0.0149827
679.704	0.0149289
679.782	0.0147383
679.860	0.0150004
679.938	0.0148788
680.016	0.0149651
680.094	0.0150278
680.173	0.0149930
680.251	0.0150468
680.329	0.0150063
680.407	0.0148826
680.485	0.0150110
680.563	0.0149374
680.641	0.0149414
680.719	0.0150382
680.798	0.0149998
680.876	0.0150210
680.954	0.0149506
681.032	0.0149569
681.110	0.0149338
681.188	0.0150436
681.266	0.0150169
681.344	0.0150916
681.423	0.0149198
681.501	0.0148664
681.579	0.0150533
681.657	0.0149687
681.735	0.0149958
681.813	0.0149950
681.891	0.0150422
681.969	0.0150960
682.048	0.0149946
682.126	0.0149747
682.204	0.0150210
682.282	0.0150054
682.360	0.0149473
682.438	0.0150264
682.516	0.0150854
682.594	0.0150289
682.673	0.0148632
682.751	0.0150694
682.829	0.0150178
682.907	0.0151108
682.985	0.0151315
683.063	0.0151270
683.141	0.0150483
683.219	0.0150758
683.298	0.0151713
683.376	0.0150957
683.454	0.0150111
683.532	0.0149734
683.610	0.0151774
683.688	0.0149604
683.766	0.0150264
683.844	0.0150649
683.923	0.0150079
684.001	0.0149692
684.079	0.0149863
684.157	0.0150840
684.235	0.0149605
684.313	0.0149502
684.391	0.0150337
684.469	0.0151015
684.548	0.0151399
684.626	0.0151080
684.704	0.0150090
684.782	0.0150695
684.860	0.0150288
684.938	0.0149670
685.016	0.0149490
685.094	0.0148288
685.173	0.0150388
685.251	0.0150069
685.329	0.0150117
685.407	0.0148763
685.485	0.0150990
685.563	0.0149966
685.641	0.0148745
685.719	0.0149397
685.798	0.0148744
685.876	0.0150567
685.954	0.0151118
686.032	0.0149121
686.110	0.0149283
686.188	0.0150610
686.266	0.0149776
686.344	0.0150212
686.423	0.0150154
686.501	0.0149966
686.579	0.0149822
686.657	0.0149387
686.735	0.0149673
686.813	0.0150134
686.891	0.0149452
686.969	0.0149049
687.048	0.0148946
687.126	0.0150455
687.204	0.0149868
687.282	0.0150752
687.360	0.0150027
687.438	0.0149817
687.516	0.0150624
687.594	0.0147266
687.673	0.0149300
687.751	0.0149237
687.829	0.0149530
687.907	0.0149066
687.985	0.0147993
688.063	0.0149484
688.141	0.0149786
688.219	0.0150053
688.298	0.0149194
688.376	0.0149917
688.454	0.0149859
688.532	0.0147479
688.610	0.0148358
688.688	0.0150957
688.766	0.0149023
688.844	0.0150417
688.923	0.0149490
689.001	0.0150325
689.079	0.0149132
689.157	0.0148653
689.235	0.0148642
689.313	0.0147645
689.391	0.0148880
689.469	0.0149825
689.548	0.0149440
689.626	0.0149311
689.704	0.0148889
689.782	0.0148769
689.860	0.0148726
689.938	0.0148758
690.016	0.0149571
690.094	0.0148875
690.173	0.0148551
690.251	0.0149839
690.329	0.0148518
690.407	0.0148235
690.485	0.0148933
690.563	0.0148923
690.641	0.0148916
690.719	0.0149523
690.798	0.0147553
690.876	0.0149184
690.954	0.0150360
691.032	0.0148839
691.110	0.0148864
691.188	0.0148516
691.266	0.0150353
691.344	0.0152152
691.423	0.0151595
691.501	0.0151715
691.579	0.0150362
691.657	0.0148854
691.735	0.0149597
691.813	0.0148963
691.891	0.0148171
691.969	0.0146278
692.048	0.0146306
692.126	0.0145296
692.204	0.0145639
692.282	0.0145647
692.360	0.0147061
692.438	0.0149176
692.516	0.0150214
692.594	0.0151324
692.673	0.0154151
692.751	0.0154076
692.829	0.0153632
692.907	0.0155163
692.985	0.0155275
693.063	0.0154668
693.141	0.0152428
693.219	0.0152905
693.298	0.0150597
693.376	0.0150060
693.454	0.0147665
693.532	0.0147513
693.610	0.0145375
693.688	0.0145425
693.766	0.0144260
693.844	0.0145280
693.923	0.0145149
694.001	0.0145579
694.079	0.0145800
694.157	0.0145742
694.235	0.0148175
694.313	0.0148003
694.391	0.0148516
694.469	0.0150405
694.548	0.0151355
694.626	0.0149847
694.704	0.0152483
694.782	0.0153458
694.860	0.0155405
694.938	0.0155013
695.016	0.0154589
695.094	0.0155983
695.173	0.0154276
695.251	0.0155435
695.329	0.0154718
695.407	0.0154013
695.485	0.0154802
695.563	0.0153469
695.641	0.0152096
695.719	0.0150423
695.798	0.0148820
695.876	0.0148570
695.954	0.0148576
696.032	0.0146545
696.110	0.0145648
696.188	0.0144408
696.266	0.0142196
696.344	0.0142718
696.423	0.0141820
696.501	0.0140616
696.579	0.0140523
696.657	0.0140979
696.735	0.0140961
696.813	0.0142254
696.891	0.0144924
696.969	0.0144044
697.048	0.0145911
697.126	0.0147311
697.204	0.0150871
697.282	0.0152158
697.360	0.0152097
697.438	0.0155301
697.516	0.0155867
697.594	0.0157831
697.673	0.0158337
697.751	0.0159000
697.829	0.0159184
697.907	0.0160216
697.985	0.0157841
698.063	0.0156805
698.141	0.0155930
698.219	0.0154324
698.298	0.0152106
698.376	0.0153131
698.454	0.0152550
698.532	0.0149789
698.610	0.0148323
698.688	0.0146918
698.766	0.0144658
698.844	0.0145663
698.923	0.0143015
699.001	0.0142436
699.079	0.0142041
699.157	0.0141330
699.235	0.0140679
699.313	0.0141568
699.391	0.0141741
699.469	0.0141675
699.548	0.0140347
699.626	0.0142669
699.704	0.0142738
699.782	0.0144487
699.860	0.0144794
699.938	0.0146689
700.016	0.0145865
700.094	0.0147300
700.173	0.0147178
700.251	0.0149519
700.329	0.0151016
700.407	0.0152174
700.485	0.0151709
700.563	0.0153628
700.641	0.0153021
700.719	0.0154329
700.798	0.0153696
700.876	0.0155157
700.954	0.0155154
701.032	0.0154832
701.110	0.0155794
701.188	0.0155783
701.266	0.0155967
701.344	0.0157957
701.423	0.0157583
701.501	0.0155085
701.579	0.0154840
701.657	0.0155395
701.735	0.0153072
701.813	0.0153181
701.891	0.0152181
701.969	0.0150735
702.048	0.0149357
702.126	0.0149856
702.204	0.0147393
702.282	0.0145533
702.360	0.0145118
702.438	0.0144943
702.516	0.0144511
702.594	0.0142341
702.673	0.0140932
702.751	0.0142306
702.829	0.0139127
702.907	0.0140759
702.985	0.0140861
703.063	0.0140141
703.141	0.0139810
703.219	0.0140820
703.298	0.0141804
703.376	0.0142267
703.454	0.0144366
703.532	0.0144184
703.610	0.0145512
703.688	0.0146449
703.766	0.0147662
703.844	0.0149140
703.923	0.0150305
704.001	0.0153859
704.079	0.0154416
704.157	0.0152871
704.235	0.0154202
704.313	0.0155866
704.391	0.0155710
704.469	0.0155571
704.548	0.0155930
704.626	0.0156481
704.704	0.0157755
704.782	0.0157050
704.860	0.0156036
704.938	0.0155797
705.016	0.0157104
705.094	0.0155310
705.173	0.0154057
705.251	0.0154571
705.329	0.0154751
705.407	0.0152168
705.485	0.0153143
705.563	0.0151613
705.641	0.0151177
705.719	0.0150832
705.798	0.0149793
705.876	0.0147443
705.954	0.0147262
706.032	0.0146518
706.110	0.0145449
706.188	0.0146285
706.266	0.0144865
706.344	0.0144561
706.423	0.0145161
706.501	0.0144276
706.579	0.0143069
706.657	0.0143969
706.735	0.0143559
706.813	0.0143075
706.891	0.0142779
706.969	0.0143349
707.048	0.0142932
707.126	0.0145155
707.204	0.0144834
707.282	0.0143882
707.360	0.0144889
707.438	0.0145116
707.516	0.0146945
707.594	0.0147897
707.673	0.0147581
707.751	0.0148469
707.829	0.0150535
707.907	0.0151569
707.985	0.0152551
708.063	0.0153806
708.141	0.0153958
708.219	0.0153661
708.298	0.0154478
708.376	0.0155049
708.454	0.0156808
708.532	0.0154924
708.610	0.0154047
708.688	0.0155384
708.766	0.0155000
708.844	0.0154450
708.923	0.0153387
709.001	0.0152942
709.079	0.0153468
709.157	0.0152274
709.235	0.0152802
709.313	0.0151922
709.391	0.0150488
709.469	0.0151469
709.548	0.0151138
709.626	0.0149812
709.704	0.0149837
709.782	0.0149462
709.860	0.0149013
709.938	0.0147933
710.016	0.0148573
710.094	0.0148072
710.173	0.0149204
710.251	0.0149049
710.329	0.0148479
710.407	0.0148614
710.485	0.0146816
710.563	0.0149387
710.641	0.0147661
710.719	0.0147413
710.798	0.0147580
710.876	0.0147569
710.954	0.0148876
711.032	0.0146335
711.110	0.0148589
711.188	0.0148286
711.266	0.0148361
711.344	0.0149841
711.423	0.0146951
711.501	0.0148000
711.579	0.0147160
711.657	0.0148070
711.735	0.0147689
711.813	0.0147419
711.891	0.0148434
711.969	0.0147254
712.048	0.0148106
712.126	0.0148299
712.204	0.0148144
712.282	0.0148995
712.360	0.0148329
712.438	0.0150021
712.516	0.0150874
712.594	0.0150667
712.673	0.0150877
712.751	0.0149953
712.829	0.0150567
712.907	0.0150814
712.985	0.0151388
713.063	0.0150117
713.141	0.0152390
713.219	0.0151144
713.298	0.0151904
713.376	0.0151495
713.454	0.0150537
713.532	0.0151674
713.610	0.0151473
713.688	0.0151355
713.766	0.0150378
713.844	0.0150607
713.923	0.0150882
714.001	0.0150764
714.079	0.0150101
714.157	0.0149686
714.235	0.0150513
714.313	0.0150416
714.391	0.0151184
714.469	0.0152550
714.548	0.0149913
714.626	0.0149921
714.704	0.0150348
714.782	0.0150505
714.860	0.0150694
714.938	0.0149904
715.016	0.0149862
715.094	0.0148869
715.173	0.0147906
715.251	0.0150537
715.329	0.0150002
715.407	0.0148694
715.485	0.0148137
715.563	0.0148022
715.641	0.0147612
715.719	0.0147197
715.798	0.0148193
715.876	0.0147587
715.954	0.0147105
716.032	0.0146411
716.110	0.0146878
716.188	0.0146613
716.266	0.0147031
716.344	0.0148720
716.423	0.0148170
716.501	0.0148137
716.579	0.0148435
716.657	0.0148860
716.735	0.0148568
716.813	0.0148279
716.891	0.0147646
716.969	0.0148930
717.048	0.0148186
717.126	0.0149377
717.204	0.0149730
717.282	0.0149515
717.360	0.0149491
717.438	0.0150325
717.516	0.0152165
717.594	0.0150880
717.673	0.0150817
717.751	0.0151466
717.829	0.0150757
717.907	0.0151043
717.985	0.0152271
718.063	0.0151605
718.141	0.0152304
718.219	0.0152010
718.298	0.0152216
718.376	0.0153433
718.454	0.0153115
718.532	0.0151746
718.610	0.0153105
718.688	0.0152390
718.766	0.0152444
718.844	0.0151596
718.923	0.0152400
719.001	0.0151962
719.079	0.0151227
719.157	0.0152556
719.235	0.0151560
719.313	0.0150969
719.391	0.0150861
719.469	0.0150523
719.548	0.0151043
719.626	0.0149874
719.704	0.0149405
719.782	0.0148744
719.860	0.0148372
719.938	0.0149924
720.016	0.0148287
720.094	0.0149694
720.173	0.0149255
720.251	0.0148282
720.329	0.0148527
720.407	0.0147428
720.485	0.0147736
720.563	0.0147748
720.641	0.0147792
720.719	0.0148096
720.798	0.0147412
720.876	0.0147712
720.954	0.0147540
721.032	0.0148528
721.110	0.0148486
721.188	0.0148266
721.266	0.0148994
721.344	0.0148866
721.423	0.0148825
721.501	0.0149490
721.579	0.0149911
721.657	0.0149465
721.735	0.0149687
721.813	0.0149168
721.891	0.0149086
721.969	0.0150248
722.048	0.0149259
722.126	0.0150568
722.204	0.0150661
722.282	0.0150365
722.360	0.0150108
722.438	0.0151907
722.516	0.0151833
722.594	0.0150533
722.673	0.0150804
722.751	0.0150469
722.829	0.0150080
722.907	0.0150837
722.985	0.0150524
723.063	0.0150519
723.141	0.0150660
723.219	0.0150604
723.298	0.0150893
723.376	0.0150370
723.454	0.0150220
723.532	0.0149008
723.610	0.0151089
723.688	0.0150536
723.766	0.0150553
723.844	0.0150902
723.923	0.0150439
724.001	0.0151347
724.079	0.0150406
724.157	0.0150095
724.235	0.0151123
724.313	0.0150230
724.391	0.0150986
724.469	0.0149785
724.548	0.0149583
724.626	0.0149738
724.704	0.0149085
724.782	0.0150801
724.860	0.0149084
724.938	0.0150035
725.016	0.0150359
725.094	0.0149440
725.173	0.0148865
725.251	0.0149030
725.329	0.0150698
725.407	0.0149499
725.485	0.0149354
725.563	0.0149185
725.641	0.0148885
725.719	0.0148133
725.798	0.0147555
725.876	0.0148976
725.954	0.0148805
726.032	0.0148447
726.110	0.0147721
726.188	0.0148327
726.266	0.0148923
726.344	0.0148519
726.423	0.0147491
726.501	0.0146806
726.579	0.0148454
726.657	0.0147463
726.735	0.0147261
726.813	0.0148548
726.891	0.0148848
726.969	0.0148454
727.048	0.0149733
727.126	0.0147520
727.204	0.0148815
727.282	0.0149049
727.360	0.0149368
727.438	0.0149181
727.516	0.0149875
727.594	0.0147919
727.673	0.0150619
727.751	0.0150359
727.829	0.0149962
727.907	0.0149802
727.985	0.0150378
728.063	0.0150262
728.141	0.0149757
728.219	0.0150137
728.298	0.0150624
728.376	0.0149998
728.454	0.0148632
728.532	0.0148094
728.610	0.0148847
728.688	0.0148714
728.766	0.0148527
728.844	0.0148970
728.923	0.0147976
729.001	0.0147895
729.079	0.0148457
729.157	0.0147897
729.235	0.0148296
729.313	0.0148643
729.391	0.0149247
729.469	0.0149482
729.548	0.0149155
729.626	0.0149582
729.704	0.0150098
729.782	0.0150439
729.860	0.0150890
729.938	0.0149416
730.016	0.0150113
730.094	0.0150751
730.173	0.0150413
730.251	0.0150838
730.329	0.0150016
730.407	0.0149918
730.485	0.0151189
730.563	0.0150937
730.641	0.0149712
730.719	0.0149344
730.798	0.0150177
730.876	0.0150417
730.954	0.0148869
731.032	0.0150465
731.110	0.0148235
731.188	0.0149442
731.266	0.0148547
731.344	0.0148455
731.423	0.0148953
731.501	0.0149361
731.579	0.0150230
731.657	0.0148362
731.735	0.0147867
731.813	0.0148582
731.891	0.0148782
731.969	0.0149006
732.048	0.0149948
732.126	0.0147594
732.204	0.0149581
732.282	0.0149561
732.360	0.0149912
732.438	0.0149223
732.516	0.0149547
732.594	0.0149433
732.673	0.0150288
732.751	0.0149107
732.829	0.0149265
732.907	0.0151433
732.985	0.0149089
733.063	0.0148999
733.141	0.0149622
733.219	0.0150484
733.298	0.0149538
733.376	0.0149268
733.454	0.0151276
733.532	0.0149906
733.610	0.0151707
733.688	0.0150422
733.766	0.0149985
733.844	0.0149348
733.923	0.0148990
734.001	0.0149775
734.079	0.0150005
734.157	0.0150416
734.235	0.0148726
734.313	0.0149817
734.391	0.0149352
734.469	0.0148176
734.548	0.0148562
734.626	0.0149980
734.704	0.0148998
734.782	0.0150786
734.860	0.0149268
734.938	0.0149642
735.016	0.0147923
735.094	0.0148964
735.173	0.0149299
735.251	0.0148322
735.329	0.0149486
735.407	0.0150475
735.485	0.0148340
735.563	0.0149518
735.641	0.0150218
735.719	0.0149728
