05/14/2022	19:17:15	Ver.	4.1	UNKNOWN
Optical Delay	650.016352	Delta X		0.078125	Sweeps	1	Scan Rate	0/0
Coordinates	Axis 1	NaN	Axis 2	NaN	Axis 3	NaN	Axis 4	NaN	Axis 5	NaN	Axis 6	0.000000
TX Power	0.000000	RX Power	0.000000

650.016	0.0141448
650.094	0.0142296
650.173	0.0142239
650.251	0.0140457
650.329	0.0140469
650.407	0.0140162
650.485	0.0141689
650.563	0.0141353
650.641	0.0141328
650.719	0.0142010
650.798	0.0143144
650.876	0.0139725
650.954	0.0140588
651.032	0.0142370
651.110	0.0139832
651.188	0.0141114
651.266	0.0141697
651.344	0.0141660
651.423	0.0141370
651.501	0.0140409
651.579	0.0142480
651.657	0.0140791
651.735	0.0141527
651.813	0.0141279
651.891	0.0140503
651.969	0.0141421
652.048	0.0140826
652.126	0.0141478
652.204	0.0141312
652.282	0.0141299
652.360	0.0141077
652.438	0.0142249
652.516	0.0141689
652.594	0.0140412
652.673	0.0141102
652.751	0.0141971
652.829	0.0141407
652.907	0.0141873
652.985	0.0143003
653.063	0.0142529
653.141	0.0141525
653.219	0.0141171
653.298	0.0141247
653.376	0.0142062
653.454	0.0140912
653.532	0.0140535
653.610	0.0141479
653.688	0.0141969
653.766	0.0140424
653.844	0.0141086
653.923	0.0142394
654.001	0.0141689
654.079	0.0141633
654.157	0.0141169
654.235	0.0141183
654.313	0.0140358
654.391	0.0141871
654.469	0.0142101
654.548	0.0140807
654.626	0.0140609
654.704	0.0142549
654.782	0.0140623
654.860	0.0139978
654.938	0.0141315
655.016	0.0141619
655.094	0.0140939
655.173	0.0141743
655.251	0.0141312
655.329	0.0141183
655.407	0.0141523
655.485	0.0141232
655.563	0.0140922
655.641	0.0141502
655.719	0.0142883
655.798	0.0142730
655.876	0.0141329
655.954	0.0141557
656.032	0.0142605
656.110	0.0142097
656.188	0.0141206
656.266	0.0142326
656.344	0.0140928
656.423	0.0141624
656.501	0.0140106
656.579	0.0141566
656.657	0.0141056
656.735	0.0141623
656.813	0.0142182
656.891	0.0142191
656.969	0.0139923
657.048	0.0141283
657.126	0.0141388
657.204	0.0140943
657.282	0.0141899
657.360	0.0141101
657.438	0.0141108
657.516	0.0140593
657.594	0.0140796
657.673	0.0141587
657.751	0.0142081
657.829	0.0141227
657.907	0.0140889
657.985	0.0141021
658.063	0.0141319
658.141	0.0141509
658.219	0.0141552
658.298	0.0141397
658.376	0.0141481
658.454	0.0140493
658.532	0.0141465
658.610	0.0143197
658.688	0.0142525
658.766	0.0142203
658.844	0.0140236
658.923	0.0140923
659.001	0.0140892
659.079	0.0141738
659.157	0.0141650
659.235	0.0141433
659.313	0.0141351
659.391	0.0140955
659.469	0.0141184
659.548	0.0141534
659.626	0.0141010
659.704	0.0142105
659.782	0.0142360
659.860	0.0140112
659.938	0.0140434
660.016	0.0140530
660.094	0.0141123
660.173	0.0141615
660.251	0.0141055
660.329	0.0140211
660.407	0.0140825
660.485	0.0141586
660.563	0.0141994
660.641	0.0143380
660.719	0.0140922
660.798	0.0140392
660.876	0.0140376
660.954	0.0140539
661.032	0.0140543
661.110	0.0140727
661.188	0.0141086
661.266	0.0140073
661.344	0.0140791
661.423	0.0141045
661.501	0.0141970
661.579	0.0141000
661.657	0.0140326
661.735	0.0140893
661.813	0.0141953
661.891	0.0140007
661.969	0.0141123
662.048	0.0140697
662.126	0.0141325
662.204	0.0142432
662.282	0.0141032
662.360	0.0141288
662.438	0.0141924
662.516	0.0140549
662.594	0.0139008
662.673	0.0141537
662.751	0.0141554
662.829	0.0142217
662.907	0.0141136
662.985	0.0140566
663.063	0.0140464
663.141	0.0140813
663.219	0.0141175
663.298	0.0140949
663.376	0.0141496
663.454	0.0140961
663.532	0.0140836
663.610	0.0141438
663.688	0.0139205
663.766	0.0140076
663.844	0.0141035
663.923	0.0141041
664.001	0.0140981
664.079	0.0141439
664.157	0.0141235
664.235	0.0141924
664.313	0.0141983
664.391	0.0141525
664.469	0.0141355
664.548	0.0142732
664.626	0.0142671
664.704	0.0140575
664.782	0.0140753
664.860	0.0140072
664.938	0.0140951
665.016	0.0141409
665.094	0.0141667
665.173	0.0141954
665.251	0.0142747
665.329	0.0139796
665.407	0.0141077
665.485	0.0140891
665.563	0.0141721
665.641	0.0141187
665.719	0.0142294
665.798	0.0141937
665.876	0.0141626
665.954	0.0142126
666.032	0.0141016
666.110	0.0141251
666.188	0.0140870
666.266	0.0141496
666.344	0.0141888
666.423	0.0142584
666.501	0.0141949
666.579	0.0141204
666.657	0.0142459
666.735	0.0141514
666.813	0.0140723
666.891	0.0141960
666.969	0.0140202
667.048	0.0141435
667.126	0.0140848
667.204	0.0140080
667.282	0.0141695
667.360	0.0142249
667.438	0.0141446
667.516	0.0142017
667.594	0.0140392
667.673	0.0141006
667.751	0.0139941
667.829	0.0140466
667.907	0.0142770
667.985	0.0140887
668.063	0.0141322
668.141	0.0140457
668.219	0.0140392
668.298	0.0140958
668.376	0.0141956
668.454	0.0140881
668.532	0.0141441
668.610	0.0140781
668.688	0.0141249
668.766	0.0140305
668.844	0.0140746
668.923	0.0141808
669.001	0.0142072
669.079	0.0141244
669.157	0.0142736
669.235	0.0140584
669.313	0.0142668
669.391	0.0141984
669.469	0.0140142
669.548	0.0139333
669.626	0.0142748
669.704	0.0140143
669.782	0.0140205
669.860	0.0141081
669.938	0.0140894
670.016	0.0141976
670.094	0.0141064
670.173	0.0140778
670.251	0.0141927
670.329	0.0140958
670.407	0.0141299
670.485	0.0141905
670.563	0.0141343
670.641	0.0140836
670.719	0.0141370
670.798	0.0141104
670.876	0.0141506
670.954	0.0142236
671.032	0.0142297
671.110	0.0142213
671.188	0.0140866
671.266	0.0140852
671.344	0.0141417
671.423	0.0141703
671.501	0.0141469
671.579	0.0141580
671.657	0.0140691
671.735	0.0140129
671.813	0.0142212
671.891	0.0140005
671.969	0.0139593
672.048	0.0141853
672.126	0.0141275
672.204	0.0141679
672.282	0.0140490
672.360	0.0141016
672.438	0.0141154
672.516	0.0141459
672.594	0.0140546
672.673	0.0141747
672.751	0.0142574
672.829	0.0141460
672.907	0.0140865
672.985	0.0141165
673.063	0.0141119
673.141	0.0140611
673.219	0.0140669
673.298	0.0141995
673.376	0.0141453
673.454	0.0141422
673.532	0.0140826
673.610	0.0141360
673.688	0.0141460
673.766	0.0141741
673.844	0.0141954
673.923	0.0140484
674.001	0.0140926
674.079	0.0141439
674.157	0.0141914
674.235	0.0141486
674.313	0.0141334
674.391	0.0139428
674.469	0.0141239
674.548	0.0140556
674.626	0.0140516
674.704	0.0141685
674.782	0.0140609
674.860	0.0140560
674.938	0.0141454
675.016	0.0140594
675.094	0.0141058
675.173	0.0140733
675.251	0.0141430
675.329	0.0139849
675.407	0.0140685
675.485	0.0142091
675.563	0.0140983
675.641	0.0140876
675.719	0.0140223
675.798	0.0141985
675.876	0.0141840
675.954	0.0139935
676.032	0.0141756
676.110	0.0142311
676.188	0.0141194
676.266	0.0140371
676.344	0.0142229
676.423	0.0140833
676.501	0.0140795
676.579	0.0141659
676.657	0.0140261
676.735	0.0141901
676.813	0.0141045
676.891	0.0140843
676.969	0.0140582
677.048	0.0140588
677.126	0.0140597
677.204	0.0140750
677.282	0.0141067
677.360	0.0140047
677.438	0.0140863
677.516	0.0140836
677.594	0.0140331
677.673	0.0141405
677.751	0.0140620
677.829	0.0140265
677.907	0.0140536
677.985	0.0140918
678.063	0.0140771
678.141	0.0139851
678.219	0.0140061
678.298	0.0140336
678.376	0.0141324
678.454	0.0140781
678.532	0.0141167
678.610	0.0140339
678.688	0.0140929
678.766	0.0141651
678.844	0.0141925
678.923	0.0141104
679.001	0.0142276
679.079	0.0140564
679.157	0.0140202
679.235	0.0141162
679.313	0.0141666
679.391	0.0143456
679.469	0.0142134
679.548	0.0141750
679.626	0.0141129
679.704	0.0141923
679.782	0.0141441
679.860	0.0141785
679.938	0.0141300
680.016	0.0141330
680.094	0.0141180
680.173	0.0140793
680.251	0.0139507
680.329	0.0139420
680.407	0.0139338
680.485	0.0140231
680.563	0.0141227
680.641	0.0141181
680.719	0.0141472
680.798	0.0142141
680.876	0.0143079
680.954	0.0143768
681.032	0.0143157
681.110	0.0144154
681.188	0.0143252
681.266	0.0142651
681.344	0.0141803
681.423	0.0142921
681.501	0.0139389
681.579	0.0140790
681.657	0.0139109
681.735	0.0138955
681.813	0.0137782
681.891	0.0137015
681.969	0.0136112
682.048	0.0137767
682.126	0.0138073
682.204	0.0138306
682.282	0.0140289
682.360	0.0141090
682.438	0.0142182
682.516	0.0144587
682.594	0.0145055
682.673	0.0146087
682.751	0.0147905
682.829	0.0147809
682.907	0.0148295
682.985	0.0147652
683.063	0.0146709
683.141	0.0143578
683.219	0.0142160
683.298	0.0140621
683.376	0.0138341
683.454	0.0136330
683.532	0.0134926
683.610	0.0133465
683.688	0.0131860
683.766	0.0133147
683.844	0.0132854
683.923	0.0133106
684.001	0.0134078
684.079	0.0135294
684.157	0.0135678
684.235	0.0137283
684.313	0.0136285
684.391	0.0136373
684.469	0.0138085
684.548	0.0137678
684.626	0.0141152
684.704	0.0141619
684.782	0.0145073
684.860	0.0147994
684.938	0.0150860
685.016	0.0152105
685.094	0.0155203
685.173	0.0156609
685.251	0.0156367
685.329	0.0156331
685.407	0.0154963
685.485	0.0153091
685.563	0.0151060
685.641	0.0147886
685.719	0.0145376
685.798	0.0141348
685.876	0.0138789
685.954	0.0135645
686.032	0.0133356
686.110	0.0131460
686.188	0.0130578
686.266	0.0127905
686.344	0.0127892
686.423	0.0126596
686.501	0.0127721
686.579	0.0127222
686.657	0.0125444
686.735	0.0128669
686.813	0.0127740
686.891	0.0127560
686.969	0.0131879
687.048	0.0133217
687.126	0.0134403
687.204	0.0138087
687.282	0.0140425
687.360	0.0143348
687.438	0.0147287
687.516	0.0151172
687.594	0.0154172
687.673	0.0156944
687.751	0.0157363
687.829	0.0159737
687.907	0.0161481
687.985	0.0161056
688.063	0.0159651
688.141	0.0159330
688.219	0.0156063
688.298	0.0154974
688.376	0.0150699
688.454	0.0148557
688.532	0.0146246
688.610	0.0144366
688.688	0.0142603
688.766	0.0140275
688.844	0.0141124
688.923	0.0138431
689.001	0.0139023
689.079	0.0138337
689.157	0.0139684
689.235	0.0137506
689.313	0.0137347
689.391	0.0135764
689.469	0.0137074
689.548	0.0133866
689.626	0.0132702
689.704	0.0131647
689.782	0.0131252
689.860	0.0130403
689.938	0.0128194
690.016	0.0127750
690.094	0.0127470
690.173	0.0126131
690.251	0.0128300
690.329	0.0129588
690.407	0.0129368
690.485	0.0131363
690.563	0.0132079
690.641	0.0133851
690.719	0.0136676
690.798	0.0137746
690.876	0.0140264
690.954	0.0142455
691.032	0.0144565
691.110	0.0146122
691.188	0.0147938
691.266	0.0147346
691.344	0.0150861
691.423	0.0152094
691.501	0.0153054
691.579	0.0156597
691.657	0.0156151
691.735	0.0157939
691.813	0.0159996
691.891	0.0160979
691.969	0.0162923
692.048	0.0163795
692.126	0.0163959
692.204	0.0165013
692.282	0.0165477
692.360	0.0163702
692.438	0.0163557
692.516	0.0161419
692.594	0.0161517
692.673	0.0159189
692.751	0.0157603
692.829	0.0154722
692.907	0.0152888
692.985	0.0148603
693.063	0.0145256
693.141	0.0140310
693.219	0.0137763
693.298	0.0133968
693.376	0.0128946
693.454	0.0124935
693.532	0.0121121
693.610	0.0116029
693.688	0.0110921
693.766	0.0107603
693.844	0.0103561
693.923	0.00990616
694.001	0.00949203
694.079	0.00955345
694.157	0.00916908
694.235	0.00909248
694.313	0.00926613
694.391	0.00946846
694.469	0.00979103
694.548	0.0101941
694.626	0.0106423
694.704	0.0112712
694.782	0.0118525
694.860	0.0126127
694.938	0.0132889
695.016	0.0140737
695.094	0.0150491
695.173	0.0158570
695.251	0.0166634
695.329	0.0176315
695.407	0.0181091
695.485	0.0191756
695.563	0.0199307
695.641	0.0206037
695.719	0.0212045
695.798	0.0217436
695.876	0.0221103
695.954	0.0223726
696.032	0.0225031
696.110	0.0223576
696.188	0.0221885
696.266	0.0215771
696.344	0.0210755
696.423	0.0202306
696.501	0.0193851
696.579	0.0181567
696.657	0.0170703
696.735	0.0156944
696.813	0.0142104
696.891	0.0129776
696.969	0.0114315
697.048	0.00991394
697.126	0.00890121
697.204	0.00796753
697.282	0.00691772
697.360	0.00620972
697.438	0.00583313
697.516	0.00561066
697.594	0.00545029
697.673	0.00559052
697.751	0.00593369
697.829	0.00637360
697.907	0.00694878
697.985	0.00751259
698.063	0.00803253
698.141	0.00851433
698.219	0.00894829
698.298	0.00928116
698.376	0.00985283
698.454	0.0103224
698.532	0.0107717
698.610	0.0116524
698.688	0.0123161
698.766	0.0133665
698.844	0.0144062
698.923	0.0155505
699.001	0.0166125
699.079	0.0175701
699.157	0.0184136
699.235	0.0193355
699.313	0.0200134
699.391	0.0205054
699.469	0.0209011
699.548	0.0210988
699.626	0.0211319
699.704	0.0211148
699.782	0.0209174
699.860	0.0206361
699.938	0.0203418
700.016	0.0200854
700.094	0.0198627
700.173	0.0196642
700.251	0.0194595
700.329	0.0193401
700.407	0.0192316
700.485	0.0187872
700.563	0.0184315
700.641	0.0179910
700.719	0.0172088
700.798	0.0165322
700.876	0.0156257
700.954	0.0145100
701.032	0.0136928
701.110	0.0126125
701.188	0.0113465
701.266	0.0105672
701.344	0.00970558
701.423	0.00893784
701.501	0.00831497
701.579	0.00798050
701.657	0.00784103
701.735	0.00781395
701.813	0.00802574
701.891	0.00815117
701.969	0.00870934
702.048	0.00889091
702.126	0.00923164
702.204	0.00957779
702.282	0.00992615
702.360	0.0102635
702.438	0.0103281
702.516	0.0104305
702.594	0.0103274
702.673	0.0103671
702.751	0.0105338
702.829	0.0104276
702.907	0.0104530
702.985	0.0103339
703.063	0.0105713
703.141	0.0109158
703.219	0.0113784
703.298	0.0117626
703.376	0.0123020
703.454	0.0131062
703.532	0.0139520
703.610	0.0149677
703.688	0.0155222
703.766	0.0163163
703.844	0.0171036
703.923	0.0178373
704.001	0.0181867
704.079	0.0187653
704.157	0.0192538
704.235	0.0195670
704.313	0.0199386
704.391	0.0201258
704.469	0.0204388
704.548	0.0206625
704.626	0.0208584
704.704	0.0210480
704.782	0.0211900
704.860	0.0214257
704.938	0.0213847
705.016	0.0214930
705.094	0.0215755
705.173	0.0210682
705.251	0.0207898
705.329	0.0202372
705.407	0.0195857
705.485	0.0186033
705.563	0.0174566
705.641	0.0164044
705.719	0.0151493
705.798	0.0139368
705.876	0.0126173
705.954	0.0113356
706.032	0.0103036
706.110	0.00905212
706.188	0.00816002
706.266	0.00726028
706.344	0.00655128
706.423	0.00597984
706.501	0.00567841
706.579	0.00559044
706.657	0.00562614
706.735	0.00583702
706.813	0.00612427
706.891	0.00659912
706.969	0.00713974
707.048	0.00775513
707.126	0.00832977
707.204	0.00891449
707.282	0.00950485
707.360	0.0101991
707.438	0.0105311
707.516	0.0109552
707.594	0.0112221
707.673	0.0114693
707.751	0.0117451
707.829	0.0121999
707.907	0.0123764
707.985	0.0127528
708.063	0.0130780
708.141	0.0134284
708.219	0.0139503
708.298	0.0143871
708.376	0.0150416
708.454	0.0156671
708.532	0.0163518
708.610	0.0170361
708.688	0.0175480
708.766	0.0181412
708.844	0.0187612
708.923	0.0192895
709.001	0.0196716
709.079	0.0200377
709.157	0.0203175
709.235	0.0205997
709.313	0.0207256
709.391	0.0210255
709.469	0.0211826
709.548	0.0213117
709.626	0.0215228
709.704	0.0216003
709.782	0.0216552
709.860	0.0215448
709.938	0.0215745
710.016	0.0212302
710.094	0.0207990
710.173	0.0201505
710.251	0.0194498
710.329	0.0185376
710.407	0.0175031
710.485	0.0162546
710.563	0.0150369
710.641	0.0137312
710.719	0.0122612
710.798	0.0110361
710.876	0.00985985
710.954	0.00883812
711.032	0.00796173
711.110	0.00730766
711.188	0.00683418
711.266	0.00640549
711.344	0.00628990
711.423	0.00627907
711.501	0.00619606
711.579	0.00624107
711.657	0.00648636
711.735	0.00688225
711.813	0.00717010
711.891	0.00748077
711.969	0.00772346
712.048	0.00812714
712.126	0.00840988
712.204	0.00891937
712.282	0.00908714
712.360	0.00954315
712.438	0.00994904
712.516	0.0106854
712.594	0.0111488
712.673	0.0117349
712.751	0.0124356
712.829	0.0131183
712.907	0.0138470
712.985	0.0144708
713.063	0.0151709
713.141	0.0158737
713.219	0.0164933
713.298	0.0171054
713.376	0.0176471
713.454	0.0179021
713.532	0.0182268
713.610	0.0186908
713.688	0.0189888
713.766	0.0190851
713.844	0.0191138
713.923	0.0190677
714.001	0.0192897
714.079	0.0196085
714.157	0.0196290
714.235	0.0196513
714.313	0.0197145
714.391	0.0199329
714.469	0.0199056
714.548	0.0197677
714.626	0.0197311
714.704	0.0195361
714.782	0.0193187
714.860	0.0188908
714.938	0.0184009
715.016	0.0179278
715.094	0.0173309
715.173	0.0167396
715.251	0.0161906
715.329	0.0154107
715.407	0.0147820
715.485	0.0142623
715.563	0.0136750
715.641	0.0131406
715.719	0.0127869
715.798	0.0121734
715.876	0.0119006
715.954	0.0115768
716.032	0.0113586
716.110	0.0109756
716.188	0.0106476
716.266	0.0105311
716.344	0.0103089
716.423	0.0100450
716.501	0.0101206
716.579	0.0100786
716.657	0.0100620
716.735	0.0100287
716.813	0.00987244
716.891	0.0100959
716.969	0.0101154
717.048	0.0101358
717.126	0.0103136
717.204	0.0104178
717.282	0.0104086
717.360	0.0104872
717.438	0.0106956
717.516	0.0110226
717.594	0.0110026
717.673	0.0110756
717.751	0.0115559
717.829	0.0118514
717.907	0.0120845
717.985	0.0125568
718.063	0.0130188
718.141	0.0134567
718.219	0.0140524
718.298	0.0146175
718.376	0.0150996
718.454	0.0156866
718.532	0.0162895
718.610	0.0167593
718.688	0.0172140
718.766	0.0176559
718.844	0.0179529
718.923	0.0181185
719.001	0.0182372
719.079	0.0182857
719.157	0.0183619
719.235	0.0182056
719.313	0.0179177
719.391	0.0178191
719.469	0.0175378
719.548	0.0172696
719.626	0.0168328
719.704	0.0166630
719.782	0.0164439
719.860	0.0160474
719.938	0.0159236
720.016	0.0158063
720.094	0.0155435
720.173	0.0153650
720.251	0.0150664
720.329	0.0150229
720.407	0.0149895
720.485	0.0148299
720.563	0.0148183
720.641	0.0147623
720.719	0.0145840
720.798	0.0145242
720.876	0.0145909
720.954	0.0143919
721.032	0.0141685
721.110	0.0141718
721.188	0.0139835
721.266	0.0140077
721.344	0.0137987
721.423	0.0135457
721.501	0.0133010
721.579	0.0131519
721.657	0.0128751
721.735	0.0125835
721.813	0.0125424
721.891	0.0122568
721.969	0.0120892
722.048	0.0118985
722.126	0.0118491
722.204	0.0117262
722.282	0.0116398
722.360	0.0117365
722.438	0.0116991
722.516	0.0117174
722.594	0.0118214
722.673	0.0119466
722.751	0.0121581
722.829	0.0122414
722.907	0.0125630
722.985	0.0126392
723.063	0.0127844
723.141	0.0131820
723.219	0.0132918
723.298	0.0132120
723.376	0.0134337
723.454	0.0136290
723.532	0.0138309
723.610	0.0139819
723.688	0.0142272
723.766	0.0143905
723.844	0.0145423
723.923	0.0146648
724.001	0.0148781
724.079	0.0148100
724.157	0.0150528
724.235	0.0153128
724.313	0.0153052
724.391	0.0154179
724.469	0.0151591
724.548	0.0152095
724.626	0.0152406
724.704	0.0149876
724.782	0.0148712
724.860	0.0147234
724.938	0.0144979
725.016	0.0140353
725.094	0.0140604
725.173	0.0140369
725.251	0.0138935
725.329	0.0137203
725.407	0.0137899
725.485	0.0137460
725.563	0.0140718
725.641	0.0141520
725.719	0.0142685
725.798	0.0145486
725.876	0.0148274
725.954	0.0152220
726.032	0.0154472
726.110	0.0157007
726.188	0.0159522
726.266	0.0160824
726.344	0.0161039
726.423	0.0162434
726.501	0.0161305
726.579	0.0163816
726.657	0.0162184
726.735	0.0159923
726.813	0.0157852
726.891	0.0156201
726.969	0.0152747
727.048	0.0151529
727.126	0.0148148
727.204	0.0144703
727.282	0.0141789
727.360	0.0141478
727.438	0.0139249
727.516	0.0136958
727.594	0.0136051
727.673	0.0136000
727.751	0.0133994
727.829	0.0132877
727.907	0.0133607
727.985	0.0131845
728.063	0.0130328
728.141	0.0130882
728.219	0.0130193
728.298	0.0130579
728.376	0.0130588
728.454	0.0129556
728.532	0.0128413
728.610	0.0127698
728.688	0.0128141
728.766	0.0127417
728.844	0.0127471
728.923	0.0127903
729.001	0.0127382
729.079	0.0127934
729.157	0.0128812
729.235	0.0128732
729.313	0.0129065
729.391	0.0130568
729.469	0.0129372
729.548	0.0129111
729.626	0.0129570
729.704	0.0130870
729.782	0.0130843
729.860	0.0127539
729.938	0.0127613
730.016	0.0127620
730.094	0.0126947
730.173	0.0127679
730.251	0.0127992
730.329	0.0128966
730.407	0.0129273
730.485	0.0132033
730.563	0.0134488
730.641	0.0137648
730.719	0.0140481
730.798	0.0143348
730.876	0.0146264
730.954	0.0148781
731.032	0.0153410
731.110	0.0155282
731.188	0.0155715
731.266	0.0157571
731.344	0.0158736
731.423	0.0160274
731.501	0.0161565
731.579	0.0162192
731.657	0.0162646
731.735	0.0163013
731.813	0.0162016
731.891	0.0161462
731.969	0.0161761
732.048	0.0161190
732.126	0.0160904
732.204	0.0160419
732.282	0.0159902
732.360	0.0159886
732.438	0.0157605
732.516	0.0156821
732.594	0.0154056
732.673	0.0153114
732.751	0.0152591
732.829	0.0151473
732.907	0.0148642
732.985	0.0147083
733.063	0.0143880
733.141	0.0142232
733.219	0.0141142
733.298	0.0139294
733.376	0.0136600
733.454	0.0134950
733.532	0.0135693
733.610	0.0132592
733.688	0.0132315
733.766	0.0131705
733.844	0.0131145
733.923	0.0131467
734.001	0.0132006
734.079	0.0130829
734.157	0.0130897
734.235	0.0129903
734.313	0.0128800
734.391	0.0129399
734.469	0.0127856
734.548	0.0127415
734.626	0.0127731
734.704	0.0126828
734.782	0.0127370
734.860	0.0127785
734.938	0.0127174
735.016	0.0128484
735.094	0.0127948
735.173	0.0129391
735.251	0.0131033
735.329	0.0130602
735.407	0.0130849
