05/14/2022	19:20:55	Ver.	4.1	UNKNOWN
Optical Delay	650.016352	Delta X		0.078125	Sweeps	1	Scan Rate	0/0
Coordinates	Axis 1	NaN	Axis 2	NaN	Axis 3	NaN	Axis 4	NaN	Axis 5	NaN	Axis 6	0.000000
TX Power	0.000000	RX Power	0.000000

650.016	0.0146064
650.094	0.0146377
650.173	0.0145934
650.251	0.0146465
650.329	0.0146339
650.407	0.0144205
650.485	0.0146622
650.563	0.0146892
650.641	0.0147531
650.719	0.0147030
650.798	0.0145538
650.876	0.0146554
650.954	0.0146562
651.032	0.0145494
651.110	0.0146652
651.188	0.0146503
651.266	0.0145164
651.344	0.0147857
651.423	0.0144642
651.501	0.0147692
651.579	0.0147443
651.657	0.0146698
651.735	0.0146470
651.813	0.0145738
651.891	0.0146159
651.969	0.0146299
652.048	0.0147681
652.126	0.0145923
652.204	0.0147391
652.282	0.0146786
652.360	0.0145215
652.438	0.0146310
652.516	0.0146373
652.594	0.0146778
652.673	0.0146090
652.751	0.0146027
652.829	0.0147076
652.907	0.0146706
652.985	0.0146339
653.063	0.0146001
653.141	0.0146474
653.219	0.0145853
653.298	0.0147604
653.376	0.0145461
653.454	0.0147234
653.532	0.0147108
653.610	0.0148164
653.688	0.0145008
653.766	0.0145294
653.844	0.0147263
653.923	0.0146193
654.001	0.0145488
654.079	0.0144650
654.157	0.0144972
654.235	0.0145962
654.313	0.0146932
654.391	0.0146593
654.469	0.0145363
654.548	0.0144712
654.626	0.0146415
654.704	0.0144892
654.782	0.0146431
654.860	0.0145986
654.938	0.0143474
655.016	0.0146098
655.094	0.0146005
655.173	0.0144106
655.251	0.0144759
655.329	0.0144994
655.407	0.0145284
655.485	0.0145441
655.563	0.0144484
655.641	0.0145744
655.719	0.0144897
655.798	0.0144948
655.876	0.0144722
655.954	0.0144645
656.032	0.0144678
656.110	0.0144353
656.188	0.0144780
656.266	0.0144089
656.344	0.0144803
656.423	0.0145564
656.501	0.0143025
656.579	0.0143806
656.657	0.0144153
656.735	0.0144305
656.813	0.0142842
656.891	0.0144825
656.969	0.0144761
657.048	0.0144091
657.126	0.0143990
657.204	0.0143093
657.282	0.0143583
657.360	0.0144196
657.438	0.0144376
657.516	0.0143362
657.594	0.0143617
657.673	0.0144182
657.751	0.0144324
657.829	0.0144243
657.907	0.0145151
657.985	0.0144312
658.063	0.0143710
658.141	0.0143436
658.219	0.0143434
658.298	0.0144143
658.376	0.0142999
658.454	0.0143441
658.532	0.0144159
658.610	0.0145186
658.688	0.0144699
658.766	0.0143737
658.844	0.0144356
658.923	0.0143283
659.001	0.0144445
659.079	0.0142448
659.157	0.0143289
659.235	0.0142992
659.313	0.0143465
659.391	0.0143068
659.469	0.0143325
659.548	0.0144070
659.626	0.0144738
659.704	0.0144852
659.782	0.0143139
659.860	0.0142763
659.938	0.0142875
660.016	0.0143417
660.094	0.0143983
660.173	0.0145935
660.251	0.0143670
660.329	0.0143772
660.407	0.0141753
660.485	0.0143174
660.563	0.0143496
660.641	0.0143122
660.719	0.0144622
660.798	0.0144108
660.876	0.0144719
660.954	0.0143817
661.032	0.0142109
661.110	0.0143443
661.188	0.0144024
661.266	0.0142461
661.344	0.0143513
661.423	0.0142342
661.501	0.0143871
661.579	0.0145325
661.657	0.0144096
661.735	0.0142676
661.813	0.0143633
661.891	0.0142933
661.969	0.0142649
662.048	0.0144243
662.126	0.0143124
662.204	0.0143047
662.282	0.0144020
662.360	0.0144493
662.438	0.0144740
662.516	0.0145296
662.594	0.0144544
662.673	0.0143664
662.751	0.0142520
662.829	0.0143089
662.907	0.0144481
662.985	0.0143725
663.063	0.0143330
663.141	0.0144146
663.219	0.0144478
663.298	0.0143524
663.376	0.0144003
663.454	0.0143994
663.532	0.0145821
663.610	0.0145045
663.688	0.0143250
663.766	0.0145404
663.844	0.0145337
663.923	0.0145116
664.001	0.0144579
664.079	0.0144315
664.157	0.0145489
664.235	0.0145590
664.313	0.0143493
664.391	0.0145280
664.469	0.0146098
664.548	0.0143655
664.626	0.0143665
664.704	0.0143776
664.782	0.0144421
664.860	0.0145830
664.938	0.0145266
665.016	0.0145015
665.094	0.0145707
665.173	0.0146666
665.251	0.0145302
665.329	0.0145296
665.407	0.0144694
665.485	0.0145497
665.563	0.0146010
665.641	0.0146131
665.719	0.0145721
665.798	0.0145142
665.876	0.0144904
665.954	0.0145663
666.032	0.0145210
666.110	0.0146329
666.188	0.0145683
666.266	0.0145948
666.344	0.0145961
666.423	0.0145143
666.501	0.0145522
666.579	0.0145131
666.657	0.0144563
666.735	0.0145544
666.813	0.0145057
666.891	0.0145661
666.969	0.0146099
667.048	0.0146440
667.126	0.0145631
667.204	0.0143849
667.282	0.0144406
667.360	0.0145403
667.438	0.0146741
667.516	0.0146793
667.594	0.0146500
667.673	0.0145435
667.751	0.0144516
667.829	0.0146022
667.907	0.0146766
667.985	0.0146275
668.063	0.0145123
668.141	0.0145631
668.219	0.0146467
668.298	0.0145578
668.376	0.0146039
668.454	0.0146156
668.532	0.0146643
668.610	0.0147152
668.688	0.0145934
668.766	0.0146124
668.844	0.0145164
668.923	0.0145895
669.001	0.0147343
669.079	0.0145599
669.157	0.0145131
669.235	0.0145846
669.313	0.0145453
669.391	0.0145935
669.469	0.0146490
669.548	0.0145187
669.626	0.0145229
669.704	0.0146254
669.782	0.0145709
669.860	0.0145132
669.938	0.0146050
670.016	0.0145131
670.094	0.0146204
670.173	0.0146008
670.251	0.0144344
670.329	0.0145695
670.407	0.0146590
670.485	0.0145998
670.563	0.0145097
670.641	0.0147025
670.719	0.0145947
670.798	0.0144692
670.876	0.0145723
670.954	0.0147404
671.032	0.0145151
671.110	0.0146507
671.188	0.0146356
671.266	0.0146046
671.344	0.0145796
671.423	0.0146078
671.501	0.0146558
671.579	0.0145735
671.657	0.0146370
671.735	0.0144340
671.813	0.0145204
671.891	0.0146738
671.969	0.0146124
672.048	0.0145678
672.126	0.0145720
672.204	0.0145969
672.282	0.0146158
672.360	0.0147156
672.438	0.0145238
672.516	0.0145670
672.594	0.0146349
672.673	0.0145336
672.751	0.0147052
672.829	0.0146816
672.907	0.0145569
672.985	0.0144624
673.063	0.0144170
673.141	0.0144666
673.219	0.0145798
673.298	0.0146035
673.376	0.0145519
673.454	0.0144994
673.532	0.0145382
673.610	0.0144506
673.688	0.0146058
673.766	0.0146271
673.844	0.0145366
673.923	0.0144344
674.001	0.0145759
674.079	0.0144949
674.157	0.0144804
674.235	0.0146282
674.313	0.0145749
674.391	0.0146491
674.469	0.0145938
674.548	0.0145458
674.626	0.0146889
674.704	0.0145557
674.782	0.0145455
674.860	0.0144522
674.938	0.0145464
675.016	0.0145518
675.094	0.0145422
675.173	0.0145740
675.251	0.0144119
675.329	0.0146220
675.407	0.0145892
675.485	0.0145615
675.563	0.0145509
675.641	0.0146135
675.719	0.0144502
675.798	0.0145403
675.876	0.0144073
675.954	0.0145658
676.032	0.0145718
676.110	0.0146600
676.188	0.0144525
676.266	0.0145104
676.344	0.0147366
676.423	0.0146771
676.501	0.0146812
676.579	0.0146047
676.657	0.0144205
676.735	0.0143172
676.813	0.0141696
676.891	0.0139773
676.969	0.0139825
677.048	0.0139445
677.126	0.0140479
677.204	0.0139810
677.282	0.0140118
677.360	0.0143723
677.438	0.0144873
677.516	0.0145846
677.594	0.0147052
677.673	0.0149501
677.751	0.0150829
677.829	0.0150719
677.907	0.0151366
677.985	0.0151685
678.063	0.0150462
678.141	0.0149243
678.219	0.0149423
678.298	0.0147118
678.376	0.0147070
678.454	0.0146667
678.532	0.0145477
678.610	0.0144902
678.688	0.0144132
678.766	0.0144542
678.844	0.0141616
678.923	0.0141071
679.001	0.0140616
679.079	0.0140745
679.157	0.0138633
679.235	0.0138923
679.313	0.0136038
679.391	0.0134731
679.469	0.0136082
679.548	0.0136278
679.626	0.0136961
679.704	0.0137440
679.782	0.0139304
679.860	0.0142099
679.938	0.0145174
680.016	0.0145574
680.094	0.0147332
680.173	0.0150451
680.251	0.0154245
680.329	0.0157143
680.407	0.0158664
680.485	0.0159663
680.563	0.0161442
680.641	0.0162645
680.719	0.0162077
680.798	0.0159259
680.876	0.0157439
680.954	0.0156780
681.032	0.0151932
681.110	0.0149539
681.188	0.0145864
681.266	0.0140232
681.344	0.0135751
681.423	0.0133706
681.501	0.0130028
681.579	0.0127695
681.657	0.0125686
681.735	0.0123780
681.813	0.0123193
681.891	0.0124631
681.969	0.0125507
682.048	0.0126613
682.126	0.0128976
682.204	0.0130789
682.282	0.0133966
682.360	0.0138618
682.438	0.0141936
682.516	0.0143951
682.594	0.0149250
682.673	0.0152373
682.751	0.0154060
682.829	0.0155959
682.907	0.0160424
682.985	0.0162209
683.063	0.0163879
683.141	0.0165746
683.219	0.0164220
683.298	0.0165620
683.376	0.0164985
683.454	0.0163062
683.532	0.0161790
683.610	0.0159943
683.688	0.0159228
683.766	0.0153828
683.844	0.0152097
683.923	0.0148742
684.001	0.0145330
684.079	0.0143042
684.157	0.0140205
684.235	0.0137487
684.313	0.0134612
684.391	0.0133937
684.469	0.0130631
684.548	0.0128111
684.626	0.0127625
684.704	0.0127049
684.782	0.0126057
684.860	0.0125134
684.938	0.0123476
685.016	0.0124877
685.094	0.0127510
685.173	0.0128181
685.251	0.0130521
685.329	0.0134468
685.407	0.0138972
685.485	0.0140469
685.563	0.0142602
685.641	0.0146919
685.719	0.0150468
685.798	0.0153022
685.876	0.0153683
685.954	0.0154797
686.032	0.0157800
686.110	0.0157988
686.188	0.0158828
686.266	0.0156866
686.344	0.0153891
686.423	0.0153699
686.501	0.0153374
686.579	0.0152767
686.657	0.0150659
686.735	0.0149899
686.813	0.0150558
686.891	0.0150865
686.969	0.0149161
687.048	0.0150673
687.126	0.0149487
687.204	0.0149109
687.282	0.0147968
687.360	0.0148428
687.438	0.0147193
687.516	0.0146163
687.594	0.0146195
687.673	0.0144384
687.751	0.0144125
687.829	0.0144433
687.907	0.0143539
687.985	0.0143803
688.063	0.0142580
688.141	0.0144071
688.219	0.0142816
688.298	0.0142533
688.376	0.0142589
688.454	0.0143457
688.532	0.0140417
688.610	0.0139243
688.688	0.0138976
688.766	0.0138610
688.844	0.0136474
688.923	0.0134110
689.001	0.0131143
689.079	0.0129676
689.157	0.0130596
689.235	0.0128999
689.313	0.0125578
689.391	0.0127205
689.469	0.0127689
689.548	0.0129277
689.626	0.0131680
689.704	0.0134587
689.782	0.0137218
689.860	0.0139453
689.938	0.0143433
690.016	0.0148424
690.094	0.0152576
690.173	0.0155399
690.251	0.0158700
690.329	0.0160731
690.407	0.0163899
690.485	0.0164433
690.563	0.0164561
690.641	0.0165275
690.719	0.0163698
690.798	0.0164254
690.876	0.0161777
690.954	0.0161479
691.032	0.0158816
691.110	0.0158239
691.188	0.0156624
691.266	0.0154719
691.344	0.0152769
691.423	0.0150358
691.501	0.0147630
691.579	0.0146792
691.657	0.0144254
691.735	0.0141256
691.813	0.0139883
691.891	0.0135918
691.969	0.0133884
692.048	0.0130912
692.126	0.0131255
692.204	0.0129177
692.282	0.0127248
692.360	0.0129799
692.438	0.0131718
692.516	0.0133434
692.594	0.0136044
692.673	0.0139420
692.751	0.0139944
692.829	0.0143763
692.907	0.0146846
692.985	0.0148818
693.063	0.0149759
693.141	0.0151681
693.219	0.0151898
693.298	0.0151077
693.376	0.0151691
693.454	0.0149938
693.532	0.0149191
693.610	0.0147655
693.688	0.0144846
693.766	0.0144958
693.844	0.0144040
693.923	0.0142043
694.001	0.0140519
694.079	0.0138647
694.157	0.0137278
694.235	0.0134453
694.313	0.0131867
694.391	0.0129227
694.469	0.0128834
694.548	0.0127379
694.626	0.0127787
694.704	0.0127735
694.782	0.0127334
694.860	0.0131318
694.938	0.0134582
695.016	0.0135875
695.094	0.0141015
695.173	0.0146808
695.251	0.0152490
695.329	0.0156750
695.407	0.0161687
695.485	0.0165054
695.563	0.0168595
695.641	0.0171758
695.719	0.0174441
695.798	0.0173971
695.876	0.0175519
695.954	0.0174064
696.032	0.0173354
696.110	0.0173346
696.188	0.0171812
696.266	0.0170605
696.344	0.0169227
696.423	0.0166595
696.501	0.0163189
696.579	0.0160184
696.657	0.0156798
696.735	0.0151048
696.813	0.0147536
696.891	0.0143251
696.969	0.0139716
697.048	0.0136880
697.126	0.0130854
697.204	0.0128888
697.282	0.0126288
697.360	0.0124104
697.438	0.0123428
697.516	0.0120505
697.594	0.0121322
697.673	0.0121480
697.751	0.0122507
697.829	0.0122336
697.907	0.0123557
697.985	0.0126116
698.063	0.0125159
698.141	0.0127179
698.219	0.0127341
698.298	0.0131295
698.376	0.0132428
698.454	0.0131937
698.532	0.0134491
698.610	0.0136450
698.688	0.0137685
698.766	0.0138144
698.844	0.0140490
698.923	0.0139779
699.001	0.0142054
699.079	0.0143118
699.157	0.0142887
699.235	0.0145148
699.313	0.0146009
699.391	0.0145403
699.469	0.0147606
699.548	0.0149612
699.626	0.0149643
699.704	0.0149848
699.782	0.0152524
699.860	0.0153481
699.938	0.0155135
700.016	0.0156490
700.094	0.0158898
700.173	0.0159557
700.251	0.0160174
700.329	0.0163048
700.407	0.0165813
700.485	0.0167892
700.563	0.0170197
700.641	0.0169653
700.719	0.0170585
700.798	0.0172577
700.876	0.0171248
700.954	0.0171762
701.032	0.0169791
701.110	0.0166769
701.188	0.0164778
701.266	0.0162118
701.344	0.0157321
701.423	0.0152811
701.501	0.0151169
701.579	0.0146075
701.657	0.0144471
701.735	0.0141731
701.813	0.0139030
701.891	0.0136983
701.969	0.0135101
702.048	0.0135527
702.126	0.0137365
702.204	0.0134592
702.282	0.0134862
702.360	0.0133131
702.438	0.0133952
702.516	0.0136079
702.594	0.0134427
702.673	0.0134824
702.751	0.0133967
702.829	0.0133404
702.907	0.0133244
702.985	0.0133540
703.063	0.0132044
703.141	0.0131599
703.219	0.0132064
703.298	0.0130080
703.376	0.0127232
703.454	0.0127510
703.532	0.0125955
703.610	0.0123827
703.688	0.0121701
703.766	0.0121196
703.844	0.0118092
703.923	0.0118301
704.001	0.0117614
704.079	0.0116155
704.157	0.0117076
704.235	0.0115611
704.313	0.0117481
704.391	0.0119871
704.469	0.0120702
704.548	0.0122926
704.626	0.0126456
704.704	0.0128664
704.782	0.0132322
704.860	0.0135418
704.938	0.0139806
705.016	0.0145524
705.094	0.0150271
705.173	0.0154823
705.251	0.0160876
705.329	0.0164241
705.407	0.0169736
705.485	0.0173230
705.563	0.0178683
705.641	0.0183131
705.719	0.0186603
705.798	0.0192592
705.876	0.0195149
705.954	0.0199354
706.032	0.0204566
706.110	0.0208332
706.188	0.0210531
706.266	0.0212829
706.344	0.0213791
706.423	0.0212628
706.501	0.0211317
706.579	0.0207462
706.657	0.0201253
706.735	0.0195075
706.813	0.0185249
706.891	0.0176669
706.969	0.0166143
707.048	0.0155902
707.126	0.0142908
707.204	0.0131836
707.282	0.0120985
707.360	0.0111335
707.438	0.0100020
707.516	0.00906731
707.594	0.00827660
707.673	0.00748398
707.751	0.00710701
707.829	0.00679230
707.907	0.00629654
707.985	0.00605232
708.063	0.00603462
708.141	0.00614685
708.219	0.00633347
708.298	0.00668907
708.376	0.00729156
708.454	0.00787170
708.532	0.00860054
708.610	0.00925758
708.688	0.0100822
708.766	0.0111095
708.844	0.0119583
708.923	0.0128597
709.001	0.0136560
709.079	0.0144951
709.157	0.0152634
709.235	0.0157951
709.313	0.0164283
709.391	0.0168925
709.469	0.0173647
709.548	0.0176876
709.626	0.0180354
709.704	0.0182365
709.782	0.0184699
709.860	0.0185040
709.938	0.0186893
710.016	0.0186230
710.094	0.0184786
710.173	0.0184367
710.251	0.0184388
710.329	0.0181942
710.407	0.0181429
710.485	0.0181200
710.563	0.0179877
710.641	0.0177328
710.719	0.0175954
710.798	0.0174214
710.876	0.0172983
710.954	0.0170348
711.032	0.0169364
711.110	0.0164341
711.188	0.0160942
711.266	0.0159560
711.344	0.0158418
711.423	0.0156486
711.501	0.0154204
711.579	0.0152968
711.657	0.0153925
711.735	0.0151810
711.813	0.0153645
711.891	0.0153757
711.969	0.0154279
712.048	0.0153857
712.126	0.0152760
712.204	0.0151323
712.282	0.0150357
712.360	0.0147936
712.438	0.0141880
712.516	0.0139311
712.594	0.0134274
712.673	0.0127847
712.751	0.0120602
712.829	0.0116280
712.907	0.0110232
712.985	0.0104929
713.063	0.0101509
713.141	0.00987556
713.219	0.00969620
713.298	0.00947983
713.376	0.00932732
713.454	0.00957535
713.532	0.00988083
713.610	0.0101611
713.688	0.0106522
713.766	0.0111593
713.844	0.0119588
713.923	0.0126804
714.001	0.0132926
714.079	0.0138219
714.157	0.0145084
714.235	0.0151813
714.313	0.0153768
714.391	0.0159553
714.469	0.0161652
714.548	0.0164206
714.626	0.0165900
714.704	0.0164557
714.782	0.0162056
714.860	0.0160034
714.938	0.0158606
715.016	0.0153444
715.094	0.0150523
715.173	0.0146520
715.251	0.0146344
715.329	0.0141372
715.407	0.0140654
715.485	0.0139658
715.563	0.0141135
715.641	0.0140193
715.719	0.0142464
715.798	0.0144836
715.876	0.0145480
715.954	0.0149666
716.032	0.0152711
716.110	0.0157369
716.188	0.0159700
716.266	0.0162643
716.344	0.0165523
716.423	0.0167879
716.501	0.0169333
716.579	0.0170905
716.657	0.0170078
716.735	0.0171941
716.813	0.0170619
716.891	0.0170786
716.969	0.0170060
717.048	0.0170050
717.126	0.0169508
717.204	0.0166666
717.282	0.0165880
717.360	0.0165658
717.438	0.0164639
717.516	0.0163777
717.594	0.0162865
717.673	0.0163341
717.751	0.0162227
717.829	0.0161802
717.907	0.0159997
717.985	0.0158268
718.063	0.0157312
718.141	0.0150537
718.219	0.0146842
718.298	0.0142838
718.376	0.0137191
718.454	0.0133019
718.532	0.0126973
718.610	0.0119902
718.688	0.0114557
718.766	0.0110210
718.844	0.0108266
718.923	0.0105503
719.001	0.0102106
719.079	0.0101229
719.157	0.0102156
719.235	0.0101925
719.313	0.0105902
719.391	0.0108849
719.469	0.0112220
719.548	0.0117465
719.626	0.0122904
719.704	0.0127306
719.782	0.0131244
719.860	0.0135355
719.938	0.0138882
720.016	0.0142697
720.094	0.0145633
720.173	0.0149011
720.251	0.0148907
720.329	0.0150826
720.407	0.0149065
720.485	0.0146982
720.563	0.0146204
720.641	0.0144151
720.719	0.0141769
720.798	0.0139651
720.876	0.0137899
720.954	0.0137302
721.032	0.0135956
721.110	0.0134856
721.188	0.0135749
721.266	0.0136111
721.344	0.0138187
721.423	0.0141072
721.501	0.0143666
721.579	0.0146252
721.657	0.0150689
721.735	0.0154011
721.813	0.0156699
721.891	0.0159656
721.969	0.0161858
722.048	0.0163754
722.126	0.0167677
722.204	0.0169678
722.282	0.0170798
722.360	0.0171321
722.438	0.0173527
722.516	0.0175701
722.594	0.0176833
722.673	0.0177512
722.751	0.0180284
722.829	0.0180577
722.907	0.0180739
722.985	0.0180611
723.063	0.0181547
723.141	0.0181225
723.219	0.0180511
723.298	0.0178600
723.376	0.0176128
723.454	0.0175629
723.532	0.0171501
723.610	0.0169877
723.688	0.0167464
723.766	0.0163463
723.844	0.0159648
723.923	0.0156178
724.001	0.0150389
724.079	0.0145823
724.157	0.0142367
724.235	0.0135767
724.313	0.0130800
724.391	0.0124812
724.469	0.0119556
724.548	0.0113792
724.626	0.0108852
724.704	0.0105188
724.782	0.0100612
724.860	0.00985756
724.938	0.00958336
725.016	0.00946777
725.094	0.00952362
725.173	0.00949829
725.251	0.00974098
725.329	0.0100819
725.407	0.0102467
725.485	0.0106187
725.563	0.0111530
725.641	0.0115162
725.719	0.0120148
725.798	0.0122738
725.876	0.0127601
725.954	0.0130293
726.032	0.0133436
726.110	0.0136806
726.188	0.0137154
726.266	0.0138550
726.344	0.0140443
726.423	0.0140570
726.501	0.0140785
726.579	0.0142455
726.657	0.0142413
726.735	0.0143313
726.813	0.0145375
726.891	0.0144562
726.969	0.0146951
727.048	0.0148872
727.126	0.0151548
727.204	0.0154945
727.282	0.0156600
727.360	0.0159161
727.438	0.0162397
727.516	0.0164027
727.594	0.0167133
727.673	0.0169584
727.751	0.0171260
727.829	0.0172522
727.907	0.0175243
727.985	0.0176955
728.063	0.0179115
728.141	0.0179617
728.219	0.0179932
728.298	0.0179066
728.376	0.0179572
728.454	0.0179086
728.532	0.0178693
728.610	0.0177554
728.688	0.0174763
728.766	0.0174355
728.844	0.0173582
728.923	0.0172619
729.001	0.0169760
729.079	0.0167186
729.157	0.0165503
729.235	0.0163383
729.313	0.0161831
729.391	0.0159174
729.469	0.0157416
729.548	0.0155007
729.626	0.0150843
729.704	0.0147456
729.782	0.0142970
729.860	0.0140726
729.938	0.0136761
730.016	0.0132970
730.094	0.0129758
730.173	0.0127295
730.251	0.0124658
730.329	0.0121630
730.407	0.0119979
730.485	0.0117734
730.563	0.0116537
730.641	0.0115520
730.719	0.0114455
730.798	0.0113314
730.876	0.0115629
730.954	0.0114874
731.032	0.0116491
731.110	0.0117101
731.188	0.0117715
731.266	0.0120150
731.344	0.0119922
731.423	0.0120551
731.501	0.0121108
731.579	0.0122289
731.657	0.0122502
731.735	0.0122121
731.813	0.0122045
731.891	0.0122173
731.969	0.0122881
732.048	0.0123781
732.126	0.0123679
732.204	0.0122883
732.282	0.0123064
732.360	0.0124955
732.438	0.0128562
732.516	0.0130520
732.594	0.0134270
732.673	0.0137386
732.751	0.0140601
732.829	0.0144157
732.907	0.0148802
732.985	0.0153959
733.063	0.0158511
733.141	0.0161227
733.219	0.0166296
733.298	0.0168781
733.376	0.0171059
733.454	0.0172672
733.532	0.0174246
733.610	0.0176125
733.688	0.0176077
733.766	0.0176358
733.844	0.0175551
733.923	0.0175055
734.001	0.0175648
734.079	0.0174850
734.157	0.0173237
734.235	0.0172658
734.313	0.0172279
734.391	0.0171297
734.469	0.0171372
734.548	0.0170185
734.626	0.0170442
734.704	0.0169957
734.782	0.0168877
734.860	0.0167296
734.938	0.0164621
735.016	0.0163774
735.094	0.0160527
735.173	0.0160419
735.251	0.0158775
735.329	0.0155213
735.407	0.0151588
735.485	0.0149055
735.563	0.0146587
735.641	0.0143865
