05/14/2022	19:22:40	Ver.	4.1	UNKNOWN
Optical Delay	650.009681	Delta X		0.078125	Sweeps	1	Scan Rate	0/0
Coordinates	Axis 1	NaN	Axis 2	NaN	Axis 3	NaN	Axis 4	NaN	Axis 5	NaN	Axis 6	0.000000
TX Power	0.000000	RX Power	0.000000

650.010	0.0143362
650.088	0.0144141
650.166	0.0143010
650.244	0.0143876
650.322	0.0142517
650.400	0.0142738
650.478	0.0143118
650.557	0.0144067
650.635	0.0143695
650.713	0.0143542
650.791	0.0141805
650.869	0.0142546
650.947	0.0142693
651.025	0.0142804
651.103	0.0143098
651.182	0.0143114
651.260	0.0142914
651.338	0.0143240
651.416	0.0144323
651.494	0.0142832
651.572	0.0143137
651.650	0.0140960
651.728	0.0141902
651.807	0.0142300
651.885	0.0141948
651.963	0.0141042
652.041	0.0142793
652.119	0.0142738
652.197	0.0142952
652.275	0.0141818
652.353	0.0142760
652.432	0.0141769
652.510	0.0142235
652.588	0.0142046
652.666	0.0142274
652.744	0.0141826
652.822	0.0143287
652.900	0.0142686
652.978	0.0142420
653.057	0.0141692
653.135	0.0143461
653.213	0.0143340
653.291	0.0141510
653.369	0.0142829
653.447	0.0142216
653.525	0.0143123
653.603	0.0141762
653.682	0.0143042
653.760	0.0142212
653.838	0.0141904
653.916	0.0142229
653.994	0.0141885
654.072	0.0142733
654.150	0.0142493
654.228	0.0142625
654.307	0.0142561
654.385	0.0141975
654.463	0.0141621
654.541	0.0142999
654.619	0.0142359
654.697	0.0142314
654.775	0.0143077
654.853	0.0141916
654.932	0.0140878
655.010	0.0142256
655.088	0.0143393
655.166	0.0142397
655.244	0.0142967
655.322	0.0142694
655.400	0.0142683
655.478	0.0142797
655.557	0.0143133
655.635	0.0142385
655.713	0.0142316
655.791	0.0141695
655.869	0.0142335
655.947	0.0142083
656.025	0.0142462
656.103	0.0143227
656.182	0.0140605
656.260	0.0141315
656.338	0.0142729
656.416	0.0141535
656.494	0.0141279
656.572	0.0141823
656.650	0.0141504
656.728	0.0141381
656.807	0.0142580
656.885	0.0141164
656.963	0.0142194
657.041	0.0143439
657.119	0.0142336
657.197	0.0142797
657.275	0.0142016
657.353	0.0140657
657.432	0.0142436
657.510	0.0142340
657.588	0.0141219
657.666	0.0142510
657.744	0.0142037
657.822	0.0143439
657.900	0.0141340
657.978	0.0142010
658.057	0.0143739
658.135	0.0142339
658.213	0.0141384
658.291	0.0143009
658.369	0.0142491
658.447	0.0142340
658.525	0.0142715
658.603	0.0142131
658.682	0.0142849
658.760	0.0144978
658.838	0.0143246
658.916	0.0141331
658.994	0.0141761
659.072	0.0143960
659.150	0.0143595
659.228	0.0143602
659.307	0.0142393
659.385	0.0143632
659.463	0.0143170
659.541	0.0142266
659.619	0.0143143
659.697	0.0142698
659.775	0.0142838
659.853	0.0143237
659.932	0.0142996
660.010	0.0142819
660.088	0.0144235
660.166	0.0143442
660.244	0.0142699
660.322	0.0143181
660.400	0.0143600
660.478	0.0142464
660.557	0.0142759
660.635	0.0143850
660.713	0.0143283
660.791	0.0141761
660.869	0.0142809
660.947	0.0143922
661.025	0.0143172
661.103	0.0142947
661.182	0.0142657
661.260	0.0142313
661.338	0.0142799
661.416	0.0142661
661.494	0.0141943
661.572	0.0143231
661.650	0.0141943
661.728	0.0143564
661.807	0.0143234
661.885	0.0142809
661.963	0.0142968
662.041	0.0143436
662.119	0.0142990
662.197	0.0143677
662.275	0.0142604
662.353	0.0140694
662.432	0.0143327
662.510	0.0142982
662.588	0.0141902
662.666	0.0142334
662.744	0.0143906
662.822	0.0142754
662.900	0.0142859
662.978	0.0143394
663.057	0.0142135
663.135	0.0143258
663.213	0.0142667
663.291	0.0142342
663.369	0.0142275
663.447	0.0143794
663.525	0.0141338
663.603	0.0142635
663.682	0.0144254
663.760	0.0143682
663.838	0.0143083
663.916	0.0141740
663.994	0.0142209
664.072	0.0143085
664.150	0.0143653
664.228	0.0142587
664.307	0.0143776
664.385	0.0144462
664.463	0.0142714
664.541	0.0142956
664.619	0.0144709
664.697	0.0144541
664.775	0.0142812
664.853	0.0143109
664.932	0.0142883
665.010	0.0143760
665.088	0.0143964
665.166	0.0143562
665.244	0.0144131
665.322	0.0145422
665.400	0.0143845
665.478	0.0144405
665.557	0.0144273
665.635	0.0144657
665.713	0.0145018
665.791	0.0144228
665.869	0.0143857
665.947	0.0144855
666.025	0.0144539
666.103	0.0143867
666.182	0.0143467
666.260	0.0144186
666.338	0.0142996
666.416	0.0143292
666.494	0.0142601
666.572	0.0143436
666.650	0.0143001
666.728	0.0143347
666.807	0.0144647
666.885	0.0143404
666.963	0.0142588
667.041	0.0143574
667.119	0.0143504
667.197	0.0144502
667.275	0.0144735
667.353	0.0143661
667.432	0.0143800
667.510	0.0143109
667.588	0.0145430
667.666	0.0144447
667.744	0.0141711
667.822	0.0143607
667.900	0.0145035
667.978	0.0143350
668.057	0.0144147
668.135	0.0144458
668.213	0.0144551
668.291	0.0143994
668.369	0.0144083
668.447	0.0144081
668.525	0.0145068
668.603	0.0142855
668.682	0.0143563
668.760	0.0145115
668.838	0.0143542
668.916	0.0143594
668.994	0.0145554
669.072	0.0144054
669.150	0.0144030
669.228	0.0143746
669.307	0.0143922
669.385	0.0144334
669.463	0.0144444
669.541	0.0142709
669.619	0.0143377
669.697	0.0143445
669.775	0.0143420
669.853	0.0143774
669.932	0.0144002
670.010	0.0143387
670.088	0.0144634
670.166	0.0144036
670.244	0.0143841
670.322	0.0143561
670.400	0.0144308
670.478	0.0143771
670.557	0.0143715
670.635	0.0142561
670.713	0.0142477
670.791	0.0142384
670.869	0.0143001
670.947	0.0142532
671.025	0.0143371
671.103	0.0143039
671.182	0.0143272
671.260	0.0143369
671.338	0.0141205
671.416	0.0142524
671.494	0.0142717
671.572	0.0142207
671.650	0.0143842
671.728	0.0143311
671.807	0.0142433
671.885	0.0143182
671.963	0.0143858
672.041	0.0143248
672.119	0.0142782
672.197	0.0143323
672.275	0.0142222
672.353	0.0143251
672.432	0.0144723
672.510	0.0143534
672.588	0.0143354
672.666	0.0142173
672.744	0.0142496
672.822	0.0142429
672.900	0.0143253
672.978	0.0142342
673.057	0.0143728
673.135	0.0144926
673.213	0.0143407
673.291	0.0143703
673.369	0.0143597
673.447	0.0145211
673.525	0.0142898
673.603	0.0142744
673.682	0.0143705
673.760	0.0144023
673.838	0.0142276
673.916	0.0141256
673.994	0.0140830
674.072	0.0139684
674.150	0.0138478
674.228	0.0138498
674.307	0.0139796
674.385	0.0140834
674.463	0.0140293
674.541	0.0142814
674.619	0.0143594
674.697	0.0145861
674.775	0.0145769
674.853	0.0146910
674.932	0.0149399
675.010	0.0150774
675.088	0.0149785
675.166	0.0149800
675.244	0.0149247
675.322	0.0148295
675.400	0.0145287
675.478	0.0142934
675.557	0.0139749
675.635	0.0137972
675.713	0.0136343
675.791	0.0134437
675.869	0.0132791
675.947	0.0132388
676.025	0.0133678
676.103	0.0131532
676.182	0.0130865
676.260	0.0134321
676.338	0.0136108
676.416	0.0137228
676.494	0.0138854
676.572	0.0139899
676.650	0.0142098
676.728	0.0144866
676.807	0.0145702
676.885	0.0146025
676.963	0.0148039
677.041	0.0148502
677.119	0.0149516
677.197	0.0152039
677.275	0.0152766
677.353	0.0150290
677.432	0.0151039
677.510	0.0152675
677.588	0.0151954
677.666	0.0151577
677.744	0.0150324
677.822	0.0149079
677.900	0.0147292
677.978	0.0146292
678.057	0.0143842
678.135	0.0141451
678.213	0.0139898
678.291	0.0138838
678.369	0.0137469
678.447	0.0135693
678.525	0.0134423
678.603	0.0133849
678.682	0.0132195
678.760	0.0131221
678.838	0.0132065
678.916	0.0131562
678.994	0.0132185
679.072	0.0132957
679.150	0.0131573
679.228	0.0131474
679.307	0.0131033
679.385	0.0132087
679.463	0.0133211
679.541	0.0134885
679.619	0.0136989
679.697	0.0138823
679.775	0.0142114
679.853	0.0144106
679.932	0.0145510
680.010	0.0149194
680.088	0.0152811
680.166	0.0156273
680.244	0.0158504
680.322	0.0160800
680.400	0.0163991
680.478	0.0164187
680.557	0.0164555
680.635	0.0164226
680.713	0.0162508
680.791	0.0160548
680.869	0.0157559
680.947	0.0153016
681.025	0.0150197
681.103	0.0146507
681.182	0.0143764
681.260	0.0140089
681.338	0.0139068
681.416	0.0137305
681.494	0.0136067
681.572	0.0137716
681.650	0.0136219
681.728	0.0136050
681.807	0.0135898
681.885	0.0132540
681.963	0.0129681
682.041	0.0128812
682.119	0.0123743
682.197	0.0120531
682.275	0.0117141
682.353	0.0115177
682.432	0.0115678
682.510	0.0114893
682.588	0.0116509
682.666	0.0119311
682.744	0.0123190
682.822	0.0128145
682.900	0.0133720
682.978	0.0140824
683.057	0.0147120
683.135	0.0154952
683.213	0.0157857
683.291	0.0164865
683.369	0.0167752
683.447	0.0170729
683.525	0.0171442
683.603	0.0174518
683.682	0.0173624
683.760	0.0173391
683.838	0.0173945
683.916	0.0171961
683.994	0.0170839
684.072	0.0167466
684.150	0.0165711
684.228	0.0164481
684.307	0.0161019
684.385	0.0154804
684.463	0.0150686
684.541	0.0146532
684.619	0.0142207
684.697	0.0136069
684.775	0.0130818
684.853	0.0128238
684.932	0.0124898
685.010	0.0121478
685.088	0.0120362
685.166	0.0119688
685.244	0.0119619
685.322	0.0120549
685.400	0.0119373
685.478	0.0119982
685.557	0.0122160
685.635	0.0122446
685.713	0.0122565
685.791	0.0122919
685.869	0.0126481
685.947	0.0127409
686.025	0.0128002
686.103	0.0130848
686.182	0.0134745
686.260	0.0138095
686.338	0.0142088
686.416	0.0145794
686.494	0.0148308
686.572	0.0153017
686.650	0.0156881
686.728	0.0159425
686.807	0.0163622
686.885	0.0164946
686.963	0.0165738
687.041	0.0166238
687.119	0.0166323
687.197	0.0165972
687.275	0.0164967
687.353	0.0160341
687.432	0.0157517
687.510	0.0155000
687.588	0.0150526
687.666	0.0147729
687.744	0.0144587
687.822	0.0140397
687.900	0.0139899
687.978	0.0137106
688.057	0.0135028
688.135	0.0137207
688.213	0.0137745
688.291	0.0137630
688.369	0.0139887
688.447	0.0139397
688.525	0.0139768
688.603	0.0139304
688.682	0.0140453
688.760	0.0140093
688.838	0.0139934
688.916	0.0138383
688.994	0.0139097
689.072	0.0136496
689.150	0.0138526
689.228	0.0139264
689.307	0.0142009
689.385	0.0142503
689.463	0.0144530
689.541	0.0147386
689.619	0.0147982
689.697	0.0148494
689.775	0.0147941
689.853	0.0147890
689.932	0.0147481
690.010	0.0147240
690.088	0.0143893
690.166	0.0142079
690.244	0.0141101
690.322	0.0139835
690.400	0.0137851
690.478	0.0135752
690.557	0.0135696
690.635	0.0134157
690.713	0.0132782
690.791	0.0131738
690.869	0.0132274
690.947	0.0131566
691.025	0.0130854
691.103	0.0130338
691.182	0.0130334
691.260	0.0127871
691.338	0.0127744
691.416	0.0128325
691.494	0.0128217
691.572	0.0129079
691.650	0.0129741
691.728	0.0132518
691.807	0.0135726
691.885	0.0138637
691.963	0.0141755
692.041	0.0146390
692.119	0.0151751
692.197	0.0156723
692.275	0.0159027
692.353	0.0161970
692.432	0.0165555
692.510	0.0166928
692.588	0.0165040
692.666	0.0166962
692.744	0.0167444
692.822	0.0163018
692.900	0.0163216
692.978	0.0160688
693.057	0.0158121
693.135	0.0157466
693.213	0.0156384
693.291	0.0155320
693.369	0.0154729
693.447	0.0152990
693.525	0.0152931
693.603	0.0150607
693.682	0.0148555
693.760	0.0145680
693.838	0.0144737
693.916	0.0142601
693.994	0.0138486
694.072	0.0136639
694.150	0.0135279
694.228	0.0132272
694.307	0.0130956
694.385	0.0129236
694.463	0.0128446
694.541	0.0128406
694.619	0.0128045
694.697	0.0128577
694.775	0.0128600
694.853	0.0127335
694.932	0.0128688
695.010	0.0127433
695.088	0.0125352
695.166	0.0124986
695.244	0.0124134
695.322	0.0122427
695.400	0.0120475
695.478	0.0120081
695.557	0.0118736
695.635	0.0116881
695.713	0.0119276
695.791	0.0122093
695.869	0.0123754
695.947	0.0126994
696.025	0.0132298
696.103	0.0137135
696.182	0.0142509
696.260	0.0148270
696.338	0.0151920
696.416	0.0157963
696.494	0.0162228
696.572	0.0165987
696.650	0.0170602
696.728	0.0172382
696.807	0.0175828
696.885	0.0176842
696.963	0.0178563
697.041	0.0179198
697.119	0.0179420
697.197	0.0178561
697.275	0.0175965
697.353	0.0175371
697.432	0.0171823
697.510	0.0169393
697.588	0.0167258
697.666	0.0163017
697.744	0.0158807
697.822	0.0154904
697.900	0.0152425
697.978	0.0147816
698.057	0.0144369
698.135	0.0139521
698.213	0.0135374
698.291	0.0131095
698.369	0.0127799
698.447	0.0123115
698.525	0.0120071
698.603	0.0117700
698.682	0.0114719
698.760	0.0113210
698.838	0.0114498
698.916	0.0113411
698.994	0.0113465
699.072	0.0116119
699.150	0.0118410
699.228	0.0119191
699.307	0.0123045
699.385	0.0124993
699.463	0.0127999
699.541	0.0131645
699.619	0.0134768
699.697	0.0137389
699.775	0.0138947
699.853	0.0141461
699.932	0.0143826
700.010	0.0148029
700.088	0.0151070
700.166	0.0151436
700.244	0.0153647
700.322	0.0155953
700.400	0.0158242
700.478	0.0157629
700.557	0.0158829
700.635	0.0160255
700.713	0.0162270
700.791	0.0160297
700.869	0.0159546
700.947	0.0159196
701.025	0.0158667
701.103	0.0156039
701.182	0.0154309
701.260	0.0150059
701.338	0.0145663
701.416	0.0139835
701.494	0.0135689
701.572	0.0130614
701.650	0.0127192
701.728	0.0122399
701.807	0.0120116
701.885	0.0117966
701.963	0.0116345
702.041	0.0116093
702.119	0.0117474
702.197	0.0118077
702.275	0.0121781
702.353	0.0125888
702.432	0.0127940
702.510	0.0132643
702.588	0.0138764
702.666	0.0144544
702.744	0.0149708
702.822	0.0156403
702.900	0.0160335
702.978	0.0165688
703.057	0.0172316
703.135	0.0175558
703.213	0.0178762
703.291	0.0180561
703.369	0.0181346
703.447	0.0181689
703.525	0.0182005
703.603	0.0178705
703.682	0.0175342
703.760	0.0173976
703.838	0.0170621
703.916	0.0164585
703.994	0.0160287
704.072	0.0155910
704.150	0.0152500
704.228	0.0147549
704.307	0.0143227
704.385	0.0138982
704.463	0.0136256
704.541	0.0134666
704.619	0.0130711
704.697	0.0129334
704.775	0.0126488
704.853	0.0124567
704.932	0.0121584
705.010	0.0119599
705.088	0.0118058
705.166	0.0114487
705.244	0.0112831
705.322	0.0111114
705.400	0.0109183
705.478	0.0108669
705.557	0.0108693
705.635	0.0110109
705.713	0.0110425
705.791	0.0112515
705.869	0.0115103
705.947	0.0118410
706.025	0.0120845
706.103	0.0123601
706.182	0.0126277
706.260	0.0131171
706.338	0.0135507
706.416	0.0136862
706.494	0.0140403
706.572	0.0142405
706.650	0.0143742
706.728	0.0148512
706.807	0.0150712
706.885	0.0153359
706.963	0.0155842
707.041	0.0158797
707.119	0.0160504
707.197	0.0161220
707.275	0.0166000
707.353	0.0168724
707.432	0.0169882
707.510	0.0173491
707.588	0.0173811
707.666	0.0174240
707.744	0.0175237
707.822	0.0173939
707.900	0.0172995
707.978	0.0170058
708.057	0.0166865
708.135	0.0165269
708.213	0.0161168
708.291	0.0158562
708.369	0.0153915
708.447	0.0152328
708.525	0.0149619
708.603	0.0146307
708.682	0.0145343
708.760	0.0143066
708.838	0.0141165
708.916	0.0140522
708.994	0.0138365
709.072	0.0137264
709.150	0.0137451
709.228	0.0135278
709.307	0.0134440
709.385	0.0135079
709.463	0.0132763
709.541	0.0134103
709.619	0.0132999
709.697	0.0133729
709.775	0.0133958
709.853	0.0134187
709.932	0.0134337
710.010	0.0134988
710.088	0.0135544
710.166	0.0135876
710.244	0.0136439
710.322	0.0135034
710.400	0.0132371
710.478	0.0131389
710.557	0.0130371
710.635	0.0129044
710.713	0.0126490
710.791	0.0126459
710.869	0.0126007
710.947	0.0125642
711.025	0.0125631
711.103	0.0128300
711.182	0.0129614
711.260	0.0132089
711.338	0.0134284
711.416	0.0134970
711.494	0.0139582
711.572	0.0142375
711.650	0.0143498
711.728	0.0143749
711.807	0.0143988
711.885	0.0145960
711.963	0.0145053
712.041	0.0144020
712.119	0.0143425
712.197	0.0143878
712.275	0.0141516
712.353	0.0141832
712.432	0.0142763
712.510	0.0141155
712.588	0.0140950
712.666	0.0142220
712.744	0.0143384
712.822	0.0143312
712.900	0.0144296
712.978	0.0145031
713.057	0.0145278
713.135	0.0143046
713.213	0.0143058
713.291	0.0141615
713.369	0.0141246
713.447	0.0141112
713.525	0.0143808
713.603	0.0143105
713.682	0.0142681
713.760	0.0144536
713.838	0.0146115
713.916	0.0148400
713.994	0.0151929
714.072	0.0155669
714.150	0.0157061
714.228	0.0157320
714.307	0.0159820
714.385	0.0161626
714.463	0.0160890
714.541	0.0161231
714.619	0.0162247
714.697	0.0161383
714.775	0.0162457
714.853	0.0161486
714.932	0.0160709
715.010	0.0161791
715.088	0.0162205
715.166	0.0161334
715.244	0.0160741
715.322	0.0161588
715.400	0.0159337
715.478	0.0159270
715.557	0.0158401
715.635	0.0157082
715.713	0.0154044
715.791	0.0150241
715.869	0.0146350
715.947	0.0142407
716.025	0.0136754
716.103	0.0132967
716.182	0.0127890
716.260	0.0123145
716.338	0.0118603
716.416	0.0114297
716.494	0.0111073
716.572	0.0108719
716.650	0.0106683
716.728	0.0104860
716.807	0.0103761
716.885	0.0104350
716.963	0.0105290
717.041	0.0108459
717.119	0.0110583
717.197	0.0113230
717.275	0.0117471
717.353	0.0120682
717.432	0.0126646
717.510	0.0129858
717.588	0.0134441
717.666	0.0138239
717.744	0.0143977
717.822	0.0146630
717.900	0.0150309
717.978	0.0151402
718.057	0.0153497
718.135	0.0153908
718.213	0.0153313
718.291	0.0155180
718.369	0.0153497
718.447	0.0152927
718.525	0.0150780
718.603	0.0150703
718.682	0.0150562
718.760	0.0150948
718.838	0.0151670
718.916	0.0150471
718.994	0.0150359
719.072	0.0152278
719.150	0.0152817
719.228	0.0155416
719.307	0.0156443
719.385	0.0155890
719.463	0.0155894
719.541	0.0158909
719.619	0.0159966
719.697	0.0161650
719.775	0.0161888
719.853	0.0160491
719.932	0.0160460
720.010	0.0158871
720.088	0.0159853
720.166	0.0159113
720.244	0.0157759
720.322	0.0156287
720.400	0.0155116
720.478	0.0152918
720.557	0.0151321
720.635	0.0151022
720.713	0.0148828
720.791	0.0148581
720.869	0.0146720
720.947	0.0146136
721.025	0.0146378
721.103	0.0147427
721.182	0.0147203
721.260	0.0147962
721.338	0.0148094
721.416	0.0149855
721.494	0.0151321
721.572	0.0150867
721.650	0.0150448
721.728	0.0149491
721.807	0.0148183
721.885	0.0147868
721.963	0.0145143
722.041	0.0142108
722.119	0.0136449
722.197	0.0131918
722.275	0.0127857
722.353	0.0122991
722.432	0.0117373
722.510	0.0112565
722.588	0.0111153
722.666	0.0108001
722.744	0.0105630
722.822	0.0105694
722.900	0.0107517
722.978	0.0108775
723.057	0.0111264
723.135	0.0114920
723.213	0.0119363
723.291	0.0125310
723.369	0.0129163
723.447	0.0134437
723.525	0.0138786
723.603	0.0142104
723.682	0.0147344
723.760	0.0150491
723.838	0.0153468
723.916	0.0155121
723.994	0.0154816
724.072	0.0154930
724.150	0.0154028
724.228	0.0153297
724.307	0.0151928
724.385	0.0148899
724.463	0.0146259
724.541	0.0145979
724.619	0.0144269
724.697	0.0142886
724.775	0.0143065
724.853	0.0143058
724.932	0.0144353
725.010	0.0145580
725.088	0.0146624
725.166	0.0149342
725.244	0.0151270
725.322	0.0151726
725.400	0.0154133
725.478	0.0155582
725.557	0.0156461
725.635	0.0156625
725.713	0.0157671
725.791	0.0157826
725.869	0.0158171
725.947	0.0159332
726.025	0.0159357
726.103	0.0158324
726.182	0.0159271
726.260	0.0157854
726.338	0.0158110
726.416	0.0157112
726.494	0.0156870
726.572	0.0155026
726.650	0.0153098
726.728	0.0151476
726.807	0.0150539
726.885	0.0149425
726.963	0.0148424
727.041	0.0149100
727.119	0.0149352
727.197	0.0147900
727.275	0.0148779
727.353	0.0149392
727.432	0.0150008
727.510	0.0149825
727.588	0.0149090
727.666	0.0149363
727.744	0.0147546
727.822	0.0145851
727.900	0.0144279
727.978	0.0140974
728.057	0.0137684
728.135	0.0135282
728.213	0.0132177
728.291	0.0128263
728.369	0.0125834
728.447	0.0123468
728.525	0.0120155
728.603	0.0117489
728.682	0.0114668
728.760	0.0115352
728.838	0.0114719
728.916	0.0116002
728.994	0.0115547
729.072	0.0116393
729.150	0.0118767
729.228	0.0121908
729.307	0.0124773
729.385	0.0127598
729.463	0.0130561
729.541	0.0135175
729.619	0.0138537
729.697	0.0142157
729.775	0.0144164
729.853	0.0147021
729.932	0.0148878
730.010	0.0149893
730.088	0.0150950
730.166	0.0150684
730.244	0.0151587
730.322	0.0150320
730.400	0.0148383
730.478	0.0145004
730.557	0.0141662
730.635	0.0139707
730.713	0.0137368
730.791	0.0135632
730.869	0.0131988
730.947	0.0131493
731.025	0.0133036
731.103	0.0133765
731.182	0.0133713
731.260	0.0135466
731.338	0.0139913
731.416	0.0141730
731.494	0.0145351
731.572	0.0146935
731.650	0.0149892
731.728	0.0151736
731.807	0.0154523
731.885	0.0155482
731.963	0.0156564
732.041	0.0157655
732.119	0.0158097
732.197	0.0157694
732.275	0.0156708
732.353	0.0156690
732.432	0.0157199
732.510	0.0157653
732.588	0.0157388
732.666	0.0158309
732.744	0.0158690
732.822	0.0158412
732.900	0.0159978
732.978	0.0158835
733.057	0.0159828
733.135	0.0159798
733.213	0.0160275
733.291	0.0160318
733.369	0.0160992
733.447	0.0159693
733.525	0.0159270
733.603	0.0160107
733.682	0.0158408
733.760	0.0156577
733.838	0.0156630
733.916	0.0153464
733.994	0.0152175
734.072	0.0150768
734.150	0.0145883
734.228	0.0144955
734.307	0.0141084
734.385	0.0136370
734.463	0.0131979
734.541	0.0130505
734.619	0.0125706
734.697	0.0121508
734.775	0.0121631
734.853	0.0118189
734.932	0.0115427
735.010	0.0112611
735.088	0.0112309
735.166	0.0112181
735.244	0.0112075
735.322	0.0111106
735.400	0.0112756
735.478	0.0114095
735.557	0.0114826
735.635	0.0117246
735.713	0.0118587
