05/14/2022	19:22:55	Ver.	4.1	UNKNOWN
Optical Delay	650.009681	Delta X		0.078125	Sweeps	1	Scan Rate	0/0
Coordinates	Axis 1	NaN	Axis 2	NaN	Axis 3	NaN	Axis 4	NaN	Axis 5	NaN	Axis 6	0.000000
TX Power	0.000000	RX Power	0.000000

650.010	0.0140439
650.088	0.0141063
650.166	0.0139703
650.244	0.0139493
650.322	0.0140736
650.400	0.0140839
650.478	0.0141228
650.557	0.0140505
650.635	0.0139574
650.713	0.0139744
650.791	0.0140475
650.869	0.0140617
650.947	0.0141169
651.025	0.0140810
651.103	0.0140826
651.182	0.0141667
651.260	0.0139762
651.338	0.0140261
651.416	0.0140771
651.494	0.0141145
651.572	0.0140839
651.650	0.0140523
651.728	0.0140293
651.807	0.0140138
651.885	0.0140224
651.963	0.0140118
652.041	0.0139854
652.119	0.0139481
652.197	0.0140127
652.275	0.0140907
652.353	0.0141843
652.432	0.0139854
652.510	0.0138940
652.588	0.0140079
652.666	0.0140627
652.744	0.0139160
652.822	0.0139532
652.900	0.0139753
652.978	0.0139874
653.057	0.0139867
653.135	0.0140594
653.213	0.0140183
653.291	0.0140355
653.369	0.0139757
653.447	0.0139916
653.525	0.0139604
653.603	0.0140448
653.682	0.0140043
653.760	0.0139478
653.838	0.0139212
653.916	0.0139576
653.994	0.0140788
654.072	0.0138908
654.150	0.0139933
654.228	0.0139333
654.307	0.0140031
654.385	0.0140528
654.463	0.0140179
654.541	0.0139953
654.619	0.0140028
654.697	0.0139347
654.775	0.0138480
654.853	0.0140746
654.932	0.0139799
655.010	0.0139854
655.088	0.0139454
655.166	0.0139744
655.244	0.0140134
655.322	0.0138615
655.400	0.0139665
655.478	0.0138893
655.557	0.0140051
655.635	0.0140293
655.713	0.0139319
655.791	0.0139847
655.869	0.0141394
655.947	0.0138866
656.025	0.0139642
656.103	0.0139149
656.182	0.0138721
656.260	0.0141479
656.338	0.0140208
656.416	0.0139015
656.494	0.0139819
656.572	0.0140200
656.650	0.0139928
656.728	0.0140875
656.807	0.0140027
656.885	0.0139761
656.963	0.0139587
657.041	0.0140536
657.119	0.0140836
657.197	0.0139268
657.275	0.0139612
657.353	0.0141732
657.432	0.0141384
657.510	0.0140076
657.588	0.0140504
657.666	0.0140397
657.744	0.0140895
657.822	0.0139712
657.900	0.0140441
657.978	0.0140102
658.057	0.0140550
658.135	0.0140144
658.213	0.0139795
658.291	0.0140657
658.369	0.0141601
658.447	0.0140235
658.525	0.0140661
658.603	0.0142218
658.682	0.0139433
658.760	0.0139496
658.838	0.0139436
658.916	0.0139516
658.994	0.0140437
659.072	0.0141655
659.150	0.0141199
659.228	0.0140453
659.307	0.0141534
659.385	0.0142253
659.463	0.0141048
659.541	0.0140028
659.619	0.0140762
659.697	0.0140264
659.775	0.0141534
659.853	0.0140179
659.932	0.0140127
660.010	0.0139497
660.088	0.0141222
660.166	0.0141190
660.244	0.0141372
660.322	0.0140635
660.400	0.0140282
660.478	0.0139330
660.557	0.0140527
660.635	0.0142610
660.713	0.0141670
660.791	0.0141774
660.869	0.0141422
660.947	0.0141040
661.025	0.0141400
661.103	0.0140578
661.182	0.0141391
661.260	0.0140734
661.338	0.0140553
661.416	0.0140900
661.494	0.0141718
661.572	0.0140597
661.650	0.0139534
661.728	0.0140700
661.807	0.0142168
661.885	0.0140903
661.963	0.0141155
662.041	0.0141515
662.119	0.0140445
662.197	0.0142126
662.275	0.0142588
662.353	0.0141655
662.432	0.0141380
662.510	0.0141696
662.588	0.0140098
662.666	0.0140099
662.744	0.0141680
662.822	0.0141598
662.900	0.0141736
662.978	0.0140713
663.057	0.0142174
663.135	0.0140910
663.213	0.0141888
663.291	0.0141405
663.369	0.0141580
663.447	0.0141701
663.525	0.0142293
663.603	0.0141204
663.682	0.0141909
663.760	0.0141972
663.838	0.0142272
663.916	0.0141364
663.994	0.0141989
664.072	0.0142363
664.150	0.0142207
664.228	0.0142795
664.307	0.0142074
664.385	0.0142160
664.463	0.0141653
664.541	0.0140780
664.619	0.0142354
664.697	0.0142125
664.775	0.0142503
664.853	0.0141978
664.932	0.0141479
665.010	0.0141251
665.088	0.0141818
665.166	0.0142655
665.244	0.0142422
665.322	0.0141119
665.400	0.0141335
665.478	0.0142183
665.557	0.0141050
665.635	0.0141454
665.713	0.0141481
665.791	0.0141597
665.869	0.0141817
665.947	0.0142467
666.025	0.0140691
666.103	0.0141533
666.182	0.0141666
666.260	0.0142271
666.338	0.0141714
666.416	0.0141346
666.494	0.0141631
666.572	0.0140751
666.650	0.0141109
666.728	0.0141685
666.807	0.0140231
666.885	0.0141660
666.963	0.0142115
667.041	0.0140028
667.119	0.0142151
667.197	0.0142684
667.275	0.0139610
667.353	0.0140529
667.432	0.0139359
667.510	0.0141103
667.588	0.0140481
667.666	0.0141776
667.744	0.0139721
667.822	0.0140186
667.900	0.0140708
667.978	0.0141142
668.057	0.0138751
668.135	0.0140793
668.213	0.0140077
668.291	0.0140350
668.369	0.0140659
668.447	0.0140462
668.525	0.0142043
668.603	0.0139582
668.682	0.0140298
668.760	0.0140672
668.838	0.0142194
668.916	0.0141644
668.994	0.0141080
669.072	0.0140764
669.150	0.0140051
669.228	0.0141067
669.307	0.0141080
669.385	0.0141128
669.463	0.0141603
669.541	0.0140440
669.619	0.0142209
669.697	0.0140707
669.775	0.0141541
669.853	0.0140725
669.932	0.0141377
670.010	0.0141370
670.088	0.0141553
670.166	0.0140656
670.244	0.0140759
670.322	0.0140551
670.400	0.0140400
670.478	0.0140382
670.557	0.0140195
670.635	0.0140141
670.713	0.0141235
670.791	0.0140891
670.869	0.0141386
670.947	0.0140073
671.025	0.0141717
671.103	0.0140531
671.182	0.0140382
671.260	0.0140745
671.338	0.0141859
671.416	0.0141120
671.494	0.0139811
671.572	0.0140569
671.650	0.0139993
671.728	0.0141357
671.807	0.0141014
671.885	0.0140314
671.963	0.0139384
672.041	0.0139365
672.119	0.0140686
672.197	0.0139599
672.275	0.0139244
672.353	0.0139780
672.432	0.0138668
672.510	0.0139327
672.588	0.0139247
672.666	0.0139847
672.744	0.0141283
672.822	0.0140959
672.900	0.0140394
672.978	0.0141354
673.057	0.0140593
673.135	0.0141491
673.213	0.0141074
673.291	0.0138561
673.369	0.0137119
673.447	0.0140109
673.525	0.0137226
673.603	0.0136613
673.682	0.0136897
673.760	0.0134998
673.838	0.0135608
673.916	0.0136738
673.994	0.0138737
674.072	0.0140121
674.150	0.0140078
674.228	0.0141679
674.307	0.0143898
674.385	0.0144731
674.463	0.0146774
674.541	0.0149374
674.619	0.0147702
674.697	0.0146905
674.775	0.0146599
674.853	0.0144695
674.932	0.0145787
675.010	0.0141505
675.088	0.0138969
675.166	0.0136985
675.244	0.0135491
675.322	0.0132554
675.400	0.0130045
675.478	0.0129954
675.557	0.0130877
675.635	0.0130163
675.713	0.0131631
675.791	0.0131935
675.869	0.0133875
675.947	0.0135268
676.025	0.0136768
676.103	0.0139064
676.182	0.0142059
676.260	0.0144888
676.338	0.0144875
676.416	0.0146703
676.494	0.0148195
676.572	0.0148875
676.650	0.0149538
676.728	0.0149580
676.807	0.0149244
676.885	0.0151122
676.963	0.0150546
677.041	0.0150677
677.119	0.0150682
677.197	0.0150880
677.275	0.0148647
677.353	0.0147541
677.432	0.0146653
677.510	0.0144672
677.588	0.0141601
677.666	0.0142363
677.744	0.0138789
677.822	0.0134512
677.900	0.0134163
677.978	0.0132140
678.057	0.0131456
678.135	0.0130345
678.213	0.0129687
678.291	0.0130796
678.369	0.0130609
678.447	0.0131001
678.525	0.0129412
678.603	0.0131358
678.682	0.0131060
678.760	0.0132904
678.838	0.0133627
678.916	0.0132973
678.994	0.0136452
679.072	0.0135594
679.150	0.0136971
679.228	0.0137304
679.307	0.0139188
679.385	0.0141053
679.463	0.0143727
679.541	0.0147290
679.619	0.0147751
679.697	0.0150086
679.775	0.0154939
679.853	0.0154566
679.932	0.0157034
680.010	0.0160297
680.088	0.0161102
680.166	0.0160275
680.244	0.0159663
680.322	0.0158176
680.400	0.0156568
680.478	0.0152800
680.557	0.0148693
680.635	0.0145909
680.713	0.0142330
680.791	0.0141135
680.869	0.0137583
680.947	0.0135545
681.025	0.0134821
681.103	0.0132800
681.182	0.0133051
681.260	0.0134283
681.338	0.0132477
681.416	0.0131335
681.494	0.0130043
681.572	0.0127339
681.650	0.0125784
681.728	0.0124380
681.807	0.0120377
681.885	0.0117515
681.963	0.0117059
682.041	0.0115496
682.119	0.0113834
682.197	0.0116314
682.275	0.0118779
682.353	0.0122372
682.432	0.0126771
682.510	0.0133324
682.588	0.0138914
682.666	0.0143385
682.744	0.0150212
682.822	0.0156812
682.900	0.0161002
682.978	0.0164641
683.057	0.0168130
683.135	0.0170395
683.213	0.0173092
683.291	0.0173776
683.369	0.0172497
683.447	0.0173859
683.525	0.0173981
683.603	0.0170161
683.682	0.0167797
683.760	0.0165707
683.838	0.0161735
683.916	0.0156980
683.994	0.0152959
684.072	0.0147516
684.150	0.0141748
684.228	0.0135280
684.307	0.0131400
684.385	0.0127798
684.463	0.0123463
684.541	0.0118803
684.619	0.0117434
684.697	0.0115956
684.775	0.0115715
684.853	0.0114211
684.932	0.0114850
685.010	0.0115869
685.088	0.0115669
685.166	0.0115807
685.244	0.0117684
685.322	0.0119205
685.400	0.0122032
685.478	0.0123174
685.557	0.0125649
685.635	0.0128213
685.713	0.0132310
685.791	0.0135547
685.869	0.0138629
685.947	0.0142517
686.025	0.0144852
686.103	0.0148618
686.182	0.0152594
686.260	0.0156659
686.338	0.0157225
686.416	0.0157770
686.494	0.0159705
686.572	0.0161416
686.650	0.0160509
686.728	0.0161620
686.807	0.0162403
686.885	0.0161164
686.963	0.0160086
687.041	0.0158718
687.119	0.0158559
687.197	0.0156169
687.275	0.0152807
687.353	0.0150301
687.432	0.0146767
687.510	0.0145352
687.588	0.0141871
687.666	0.0138943
687.744	0.0135868
687.822	0.0137183
687.900	0.0135045
687.978	0.0133383
688.057	0.0133213
688.135	0.0131750
688.213	0.0130996
688.291	0.0131666
688.369	0.0131634
688.447	0.0131801
688.525	0.0130101
688.603	0.0131380
688.682	0.0132491
688.760	0.0132873
688.838	0.0134551
688.916	0.0137015
688.994	0.0139109
689.072	0.0141716
689.150	0.0144183
689.228	0.0144744
689.307	0.0146905
689.385	0.0147881
689.463	0.0149438
689.541	0.0148470
689.619	0.0146796
689.697	0.0146259
689.775	0.0143514
689.853	0.0142224
689.932	0.0141856
690.010	0.0139102
690.088	0.0138850
690.166	0.0137395
690.244	0.0136626
690.322	0.0135026
690.400	0.0132513
690.478	0.0132178
690.557	0.0132127
690.635	0.0131506
690.713	0.0128818
690.791	0.0128471
690.869	0.0129868
690.947	0.0126444
691.025	0.0125971
691.103	0.0124855
691.182	0.0127186
691.260	0.0128047
691.338	0.0129376
691.416	0.0132130
691.494	0.0134442
691.572	0.0137961
691.650	0.0143039
691.728	0.0146980
691.807	0.0150327
691.885	0.0153669
691.963	0.0158159
692.041	0.0159598
692.119	0.0161449
692.197	0.0162244
692.275	0.0163576
692.353	0.0163007
692.432	0.0161159
692.510	0.0161889
692.588	0.0160421
692.666	0.0159583
692.744	0.0158296
692.822	0.0155742
692.900	0.0155820
692.978	0.0155591
693.057	0.0154693
693.135	0.0153013
693.213	0.0150494
693.291	0.0148035
693.369	0.0146427
693.447	0.0140484
693.525	0.0138158
693.603	0.0135515
693.682	0.0131495
693.760	0.0129630
693.838	0.0129195
693.916	0.0127457
693.994	0.0127805
694.072	0.0127647
694.150	0.0126250
694.228	0.0128310
694.307	0.0128165
694.385	0.0126586
694.463	0.0127866
694.541	0.0127019
694.619	0.0125063
694.697	0.0125163
694.775	0.0124948
694.853	0.0122802
694.932	0.0122092
695.010	0.0120084
695.088	0.0118288
695.166	0.0118619
695.244	0.0117209
695.322	0.0117124
695.400	0.0118875
695.478	0.0121796
695.557	0.0123193
695.635	0.0124851
695.713	0.0129638
695.791	0.0132902
695.869	0.0137148
695.947	0.0143950
696.025	0.0147438
696.103	0.0151761
696.182	0.0157698
696.260	0.0163265
696.338	0.0167019
696.416	0.0171275
696.494	0.0175201
696.572	0.0177930
696.650	0.0178831
696.728	0.0182520
696.807	0.0181179
696.885	0.0182621
696.963	0.0180796
697.041	0.0180537
697.119	0.0177781
697.197	0.0174763
697.275	0.0170380
697.353	0.0165623
697.432	0.0160068
697.510	0.0153708
697.588	0.0150221
697.666	0.0143852
697.744	0.0136499
697.822	0.0130952
697.900	0.0125439
697.978	0.0118734
698.057	0.0114693
698.135	0.0110326
698.213	0.0106873
698.291	0.0104048
698.369	0.0101829
698.447	0.0102494
698.525	0.0102498
698.603	0.0104049
698.682	0.0105479
698.760	0.0108920
698.838	0.0113737
698.916	0.0117610
698.994	0.0121844
699.072	0.0124450
699.150	0.0128791
699.228	0.0132013
699.307	0.0136437
699.385	0.0140170
699.463	0.0143556
699.541	0.0145190
699.619	0.0149364
699.697	0.0151161
699.775	0.0152474
699.853	0.0154485
699.932	0.0155756
700.010	0.0158081
700.088	0.0156372
700.166	0.0156281
700.244	0.0157044
700.322	0.0157325
700.400	0.0156870
700.478	0.0156812
700.557	0.0155135
700.635	0.0155093
700.713	0.0153591
700.791	0.0149947
700.869	0.0150476
700.947	0.0147980
701.025	0.0145523
701.103	0.0142868
701.182	0.0139203
701.260	0.0136196
701.338	0.0133298
701.416	0.0129704
701.494	0.0126861
701.572	0.0123379
701.650	0.0122911
701.728	0.0121595
701.807	0.0121268
701.885	0.0119999
701.963	0.0120076
702.041	0.0123193
702.119	0.0123963
702.197	0.0127468
702.275	0.0131976
702.353	0.0134222
702.432	0.0138810
702.510	0.0144735
702.588	0.0148441
702.666	0.0154318
702.744	0.0159247
702.822	0.0163651
702.900	0.0167268
702.978	0.0171690
703.057	0.0174603
703.135	0.0175236
703.213	0.0175829
703.291	0.0176260
703.369	0.0175829
703.447	0.0173360
703.525	0.0170553
703.603	0.0165915
703.682	0.0163591
703.760	0.0158685
703.838	0.0153803
703.916	0.0150063
703.994	0.0146159
704.072	0.0142163
704.150	0.0137209
704.228	0.0133534
704.307	0.0130219
704.385	0.0125429
704.463	0.0121934
704.541	0.0118113
704.619	0.0115160
704.697	0.0111614
704.775	0.0110118
704.853	0.0107581
704.932	0.0106388
705.010	0.0107270
705.088	0.0105203
705.166	0.0104102
705.244	0.0105769
705.322	0.0107324
705.400	0.0108568
705.478	0.0112220
705.557	0.0113467
705.635	0.0116553
705.713	0.0118694
705.791	0.0123006
705.869	0.0126204
705.947	0.0126878
706.025	0.0130288
706.103	0.0133865
706.182	0.0136741
706.260	0.0139616
706.338	0.0141842
706.416	0.0144138
706.494	0.0147625
706.572	0.0151821
706.650	0.0155270
706.728	0.0158038
706.807	0.0160217
706.885	0.0163895
706.963	0.0166500
707.041	0.0168729
707.119	0.0172211
707.197	0.0174446
707.275	0.0175549
707.353	0.0177454
707.432	0.0177877
707.510	0.0178593
707.588	0.0176514
707.666	0.0174416
707.744	0.0172886
707.822	0.0170348
707.900	0.0165689
707.978	0.0161036
708.057	0.0156367
708.135	0.0151482
708.213	0.0146706
708.291	0.0142297
708.369	0.0138892
708.447	0.0133762
708.525	0.0132980
708.603	0.0128225
708.682	0.0127415
708.760	0.0129002
708.838	0.0126485
708.916	0.0122775
708.994	0.0123642
709.072	0.0123891
709.150	0.0122766
709.228	0.0123571
709.307	0.0123518
709.385	0.0122412
709.463	0.0122385
709.541	0.0123129
709.619	0.0122981
709.697	0.0125670
709.775	0.0128350
709.853	0.0128545
709.932	0.0128917
710.010	0.0130131
710.088	0.0131057
710.166	0.0130835
710.244	0.0130009
710.322	0.0130597
710.400	0.0130921
710.478	0.0130747
710.557	0.0131470
710.635	0.0133414
710.713	0.0133865
710.791	0.0136617
710.869	0.0137115
710.947	0.0139562
711.025	0.0140131
711.103	0.0142038
711.182	0.0144078
711.260	0.0146317
711.338	0.0148003
711.416	0.0147038
711.494	0.0147265
711.572	0.0146793
711.650	0.0145877
711.728	0.0146638
711.807	0.0146904
711.885	0.0145351
711.963	0.0143715
712.041	0.0144652
712.119	0.0142670
712.197	0.0144794
712.275	0.0145284
712.353	0.0144028
712.432	0.0144626
712.510	0.0145316
712.588	0.0145317
712.666	0.0144193
712.744	0.0143620
712.822	0.0143731
712.900	0.0142791
712.978	0.0142529
713.057	0.0141942
713.135	0.0142697
713.213	0.0142004
713.291	0.0142477
713.369	0.0143423
713.447	0.0143127
713.525	0.0143422
713.603	0.0144582
713.682	0.0145405
713.760	0.0145907
713.838	0.0147488
713.916	0.0148897
713.994	0.0148621
714.072	0.0148838
714.150	0.0149934
714.228	0.0149274
714.307	0.0151496
714.385	0.0153477
714.463	0.0151323
714.541	0.0155046
714.619	0.0155048
714.697	0.0156258
714.775	0.0157336
714.853	0.0157980
714.932	0.0156969
715.010	0.0157164
715.088	0.0158399
715.166	0.0156985
715.244	0.0154680
715.322	0.0153764
715.400	0.0150457
715.478	0.0149056
715.557	0.0145162
715.635	0.0141504
715.713	0.0137470
715.791	0.0132961
715.869	0.0130985
715.947	0.0124313
716.025	0.0120721
716.103	0.0117751
716.182	0.0114748
716.260	0.0112225
716.338	0.0111396
716.416	0.0108147
716.494	0.0109131
716.572	0.0107824
716.650	0.0109823
716.728	0.0112167
716.807	0.0115651
716.885	0.0118127
716.963	0.0122290
717.041	0.0124722
717.119	0.0127579
717.197	0.0130422
717.275	0.0133212
717.353	0.0137098
717.432	0.0139751
717.510	0.0142767
717.588	0.0142615
717.666	0.0145589
717.744	0.0144998
717.822	0.0144682
717.900	0.0145844
717.978	0.0145950
718.057	0.0147591
718.135	0.0146080
718.213	0.0145396
718.291	0.0146011
718.369	0.0144822
718.447	0.0145644
718.525	0.0146059
718.603	0.0148087
718.682	0.0149261
718.760	0.0148917
718.838	0.0150819
718.916	0.0152621
718.994	0.0153255
719.072	0.0154801
719.150	0.0155922
719.228	0.0157550
719.307	0.0159027
719.385	0.0159531
719.463	0.0159449
719.541	0.0159877
719.619	0.0160595
719.697	0.0158541
719.775	0.0157777
719.853	0.0156985
719.932	0.0156019
720.010	0.0154081
720.088	0.0153261
720.166	0.0151949
720.244	0.0151752
720.322	0.0149334
720.400	0.0148647
720.478	0.0148460
720.557	0.0147510
720.635	0.0148500
720.713	0.0145370
720.791	0.0145625
720.869	0.0145268
720.947	0.0146242
721.025	0.0145883
721.103	0.0144379
721.182	0.0143899
721.260	0.0144617
721.338	0.0144389
721.416	0.0142221
721.494	0.0140876
721.572	0.0138979
721.650	0.0136945
721.728	0.0132716
721.807	0.0129888
721.885	0.0127447
721.963	0.0123046
722.041	0.0120540
722.119	0.0118050
722.197	0.0114311
722.275	0.0111501
722.353	0.0109202
722.432	0.0109568
722.510	0.0108804
722.588	0.0108276
722.666	0.0109147
722.744	0.0113435
722.822	0.0117957
722.900	0.0122011
722.978	0.0126035
723.057	0.0130824
723.135	0.0134096
723.213	0.0139024
723.291	0.0143662
723.369	0.0146246
723.447	0.0150200
723.525	0.0150640
723.603	0.0152666
723.682	0.0150521
723.760	0.0152065
723.838	0.0151236
723.916	0.0147557
723.994	0.0144386
724.072	0.0142717
724.150	0.0140908
724.228	0.0138675
724.307	0.0138235
724.385	0.0137988
724.463	0.0138660
724.541	0.0139321
724.619	0.0141938
724.697	0.0142972
724.775	0.0144939
724.853	0.0145730
724.932	0.0149187
725.010	0.0150127
725.088	0.0152368
725.166	0.0152470
725.244	0.0152843
725.322	0.0154543
725.400	0.0154172
725.478	0.0154391
725.557	0.0154760
725.635	0.0155324
725.713	0.0154191
725.791	0.0155351
725.869	0.0155688
725.947	0.0155148
726.025	0.0153790
726.103	0.0153925
726.182	0.0153283
726.260	0.0153375
726.338	0.0150872
726.416	0.0151456
726.494	0.0151160
726.572	0.0149146
726.650	0.0148177
726.728	0.0148689
726.807	0.0149176
726.885	0.0147892
726.963	0.0148567
727.041	0.0147584
727.119	0.0147913
727.197	0.0146533
727.275	0.0145538
727.353	0.0143915
727.432	0.0141221
727.510	0.0138753
727.588	0.0136501
727.666	0.0134228
727.744	0.0131252
727.822	0.0127409
727.900	0.0123481
727.978	0.0120245
728.057	0.0115818
728.135	0.0113437
728.213	0.0112107
728.291	0.0110252
728.369	0.0108863
728.447	0.0108227
728.525	0.0110632
728.603	0.0111562
728.682	0.0113677
728.760	0.0116770
728.838	0.0120728
728.916	0.0122224
728.994	0.0127650
729.072	0.0131158
729.150	0.0135457
729.228	0.0138711
729.307	0.0141763
729.385	0.0144499
729.463	0.0146846
729.541	0.0147524
729.619	0.0150401
729.697	0.0151176
729.775	0.0150322
729.853	0.0151442
729.932	0.0150512
730.010	0.0148547
730.088	0.0146683
730.166	0.0144499
730.244	0.0142013
730.322	0.0139799
730.400	0.0136377
730.478	0.0134646
730.557	0.0133484
730.635	0.0132969
730.713	0.0132103
730.791	0.0132929
730.869	0.0134897
730.947	0.0136816
731.025	0.0138364
731.103	0.0141067
731.182	0.0143907
731.260	0.0146029
731.338	0.0147791
731.416	0.0149621
731.494	0.0152840
731.572	0.0152902
731.650	0.0152175
731.728	0.0154084
731.807	0.0153284
731.885	0.0153302
731.963	0.0152289
732.041	0.0151486
732.119	0.0152049
732.197	0.0151446
732.275	0.0151656
732.353	0.0151360
732.432	0.0150847
732.510	0.0152513
732.588	0.0152701
732.666	0.0153222
732.744	0.0153877
732.822	0.0156290
732.900	0.0156915
732.978	0.0156307
733.057	0.0156573
733.135	0.0157408
733.213	0.0158276
733.291	0.0156814
733.369	0.0155979
733.447	0.0156288
733.525	0.0155402
733.603	0.0152087
733.682	0.0150279
733.760	0.0147240
733.838	0.0144732
733.916	0.0140833
733.994	0.0136301
734.072	0.0131859
734.150	0.0128078
734.228	0.0125749
734.307	0.0122115
734.385	0.0118848
734.463	0.0115246
734.541	0.0115280
734.619	0.0113013
734.697	0.0112032
734.775	0.0110830
734.853	0.0111571
734.932	0.0111507
735.010	0.0112444
735.088	0.0113289
735.166	0.0116518
735.244	0.0116566
735.322	0.0120349
735.400	0.0121442
735.478	0.0125131
735.557	0.0126740
735.635	0.0129297
735.713	0.0131754
