05/14/2022	19:23:40	Ver.	4.1	UNKNOWN
Optical Delay	650.009681	Delta X		0.078125	Sweeps	1	Scan Rate	0/0
Coordinates	Axis 1	NaN	Axis 2	NaN	Axis 3	NaN	Axis 4	NaN	Axis 5	NaN	Axis 6	0.000000
TX Power	0.000000	RX Power	0.000000

650.010	0.0148199
650.088	0.0147394
650.166	0.0148289
650.244	0.0149012
650.322	0.0149424
650.400	0.0148169
650.478	0.0148135
650.557	0.0147430
650.635	0.0149747
650.713	0.0148888
650.791	0.0149689
650.869	0.0148915
650.947	0.0148759
651.025	0.0147074
651.103	0.0149934
651.182	0.0148850
651.260	0.0149346
651.338	0.0150523
651.416	0.0148351
651.494	0.0149241
651.572	0.0148725
651.650	0.0148724
651.728	0.0150269
651.807	0.0149513
651.885	0.0148016
651.963	0.0149075
652.041	0.0149262
652.119	0.0148868
652.197	0.0150187
652.275	0.0149663
652.353	0.0148432
652.432	0.0148180
652.510	0.0149178
652.588	0.0149662
652.666	0.0148594
652.744	0.0148895
652.822	0.0147015
652.900	0.0149916
652.978	0.0149821
653.057	0.0149700
653.135	0.0148678
653.213	0.0148819
653.291	0.0149348
653.369	0.0149808
653.447	0.0149830
653.525	0.0148318
653.603	0.0148286
653.682	0.0149086
653.760	0.0149397
653.838	0.0149705
653.916	0.0148889
653.994	0.0149632
654.072	0.0148187
654.150	0.0149383
654.228	0.0149412
654.307	0.0148749
654.385	0.0149223
654.463	0.0147758
654.541	0.0148359
654.619	0.0149539
654.697	0.0149994
654.775	0.0149802
654.853	0.0149197
654.932	0.0148279
655.010	0.0149726
655.088	0.0151330
655.166	0.0149294
655.244	0.0149837
655.322	0.0149345
655.400	0.0149319
655.478	0.0149763
655.557	0.0148861
655.635	0.0149110
655.713	0.0150015
655.791	0.0150143
655.869	0.0151466
655.947	0.0149202
656.025	0.0150271
656.103	0.0150446
656.182	0.0151031
656.260	0.0149249
656.338	0.0150134
656.416	0.0149256
656.494	0.0149225
656.572	0.0150019
656.650	0.0149680
656.728	0.0150472
656.807	0.0148987
656.885	0.0147887
656.963	0.0148656
657.041	0.0150598
657.119	0.0149535
657.197	0.0151042
657.275	0.0149641
657.353	0.0149637
657.432	0.0148327
657.510	0.0149456
657.588	0.0148909
657.666	0.0149069
657.744	0.0148948
657.822	0.0149316
657.900	0.0149503
657.978	0.0149175
658.057	0.0149572
658.135	0.0149184
658.213	0.0148701
658.291	0.0148779
658.369	0.0148643
658.447	0.0148584
658.525	0.0148129
658.603	0.0149406
658.682	0.0148782
658.760	0.0149416
658.838	0.0150085
658.916	0.0149799
658.994	0.0148204
659.072	0.0149232
659.150	0.0149355
659.228	0.0149076
659.307	0.0148658
659.385	0.0148629
659.463	0.0148882
659.541	0.0148929
659.619	0.0151067
659.697	0.0149936
659.775	0.0148434
659.853	0.0149749
659.932	0.0148773
660.010	0.0150000
660.088	0.0148682
660.166	0.0148036
660.244	0.0148608
660.322	0.0148268
660.400	0.0149143
660.478	0.0148698
660.557	0.0149511
660.635	0.0148761
660.713	0.0149141
660.791	0.0149914
660.869	0.0149148
660.947	0.0148835
661.025	0.0150330
661.103	0.0148962
661.182	0.0148241
661.260	0.0149152
661.338	0.0149354
661.416	0.0147836
661.494	0.0148594
661.572	0.0148712
661.650	0.0148577
661.728	0.0147645
661.807	0.0149239
661.885	0.0147374
661.963	0.0147587
662.041	0.0149578
662.119	0.0149315
662.197	0.0148544
662.275	0.0146032
662.353	0.0147884
662.432	0.0147538
662.510	0.0148326
662.588	0.0148411
662.666	0.0147800
662.744	0.0148229
662.822	0.0148223
662.900	0.0149503
662.978	0.0148170
663.057	0.0147278
663.135	0.0147336
663.213	0.0148644
663.291	0.0147594
663.369	0.0148366
663.447	0.0147701
663.525	0.0146705
663.603	0.0147183
663.682	0.0148370
663.760	0.0147832
663.838	0.0146935
663.916	0.0148149
663.994	0.0147394
664.072	0.0147404
664.150	0.0147450
664.228	0.0147130
664.307	0.0146854
664.385	0.0146602
664.463	0.0148100
664.541	0.0148309
664.619	0.0148539
664.697	0.0148052
664.775	0.0146729
664.853	0.0146422
664.932	0.0147137
665.010	0.0148515
665.088	0.0148449
665.166	0.0148130
665.244	0.0147520
665.322	0.0146902
665.400	0.0146713
665.478	0.0147554
665.557	0.0146469
665.635	0.0148516
665.713	0.0148342
665.791	0.0148551
665.869	0.0147345
665.947	0.0147576
666.025	0.0148569
666.103	0.0148094
666.182	0.0147476
666.260	0.0148135
666.338	0.0148023
666.416	0.0148048
666.494	0.0148399
666.572	0.0148534
666.650	0.0148363
666.728	0.0148814
666.807	0.0148490
666.885	0.0148692
666.963	0.0148320
667.041	0.0146835
667.119	0.0147677
667.197	0.0147939
667.275	0.0149405
667.353	0.0148763
667.432	0.0147660
667.510	0.0148233
667.588	0.0148461
667.666	0.0148101
667.744	0.0148978
667.822	0.0149107
667.900	0.0147633
667.978	0.0147567
668.057	0.0148260
668.135	0.0147736
668.213	0.0146622
668.291	0.0148820
668.369	0.0147161
668.447	0.0147865
668.525	0.0149446
668.603	0.0149331
668.682	0.0148271
668.760	0.0148595
668.838	0.0148273
668.916	0.0149495
668.994	0.0149253
669.072	0.0147858
669.150	0.0146286
669.228	0.0147247
669.307	0.0148698
669.385	0.0148680
669.463	0.0148667
669.541	0.0148631
669.619	0.0147442
669.697	0.0147269
669.775	0.0147339
669.853	0.0148239
669.932	0.0148723
670.010	0.0148417
670.088	0.0147626
670.166	0.0148466
670.244	0.0148608
670.322	0.0147897
670.400	0.0148663
670.478	0.0148975
670.557	0.0148686
670.635	0.0149767
670.713	0.0150275
670.791	0.0150457
670.869	0.0149532
670.947	0.0149448
671.025	0.0148308
671.103	0.0148769
671.182	0.0148479
671.260	0.0149171
671.338	0.0148779
671.416	0.0147996
671.494	0.0148034
671.572	0.0148489
671.650	0.0148112
671.728	0.0148100
671.807	0.0148741
671.885	0.0148301
671.963	0.0149491
672.041	0.0149194
672.119	0.0150522
672.197	0.0149873
672.275	0.0148881
672.353	0.0150760
672.432	0.0149184
672.510	0.0147295
672.588	0.0145909
672.666	0.0147453
672.744	0.0146469
672.822	0.0144512
672.900	0.0146034
672.978	0.0146697
673.057	0.0145755
673.135	0.0146832
673.213	0.0146925
673.291	0.0148788
673.369	0.0150922
673.447	0.0152195
673.525	0.0152859
673.603	0.0154124
673.682	0.0155830
673.760	0.0155106
673.838	0.0155714
673.916	0.0156568
673.994	0.0153731
674.072	0.0151854
674.150	0.0150878
674.228	0.0148335
674.307	0.0146926
674.385	0.0143826
674.463	0.0141328
674.541	0.0139816
674.619	0.0138969
674.697	0.0137942
674.775	0.0138178
674.853	0.0138205
674.932	0.0139931
675.010	0.0141052
675.088	0.0143195
675.166	0.0144939
675.244	0.0147069
675.322	0.0148766
675.400	0.0151540
675.478	0.0154327
675.557	0.0155779
675.635	0.0157436
675.713	0.0158688
675.791	0.0158559
675.869	0.0159297
675.947	0.0160035
676.025	0.0158563
676.103	0.0159190
676.182	0.0159487
676.260	0.0157133
676.338	0.0156012
676.416	0.0155179
676.494	0.0153948
676.572	0.0151295
676.650	0.0150871
676.728	0.0150221
676.807	0.0146690
676.885	0.0144427
676.963	0.0142725
677.041	0.0140928
677.119	0.0140656
677.197	0.0137663
677.275	0.0136324
677.353	0.0135465
677.432	0.0134933
677.510	0.0135582
677.588	0.0137302
677.666	0.0137776
677.744	0.0138509
677.822	0.0141031
677.900	0.0142501
677.978	0.0144409
678.057	0.0146890
678.135	0.0147150
678.213	0.0149048
678.291	0.0149316
678.369	0.0151426
678.447	0.0152396
678.525	0.0153731
678.603	0.0153935
678.682	0.0155094
678.760	0.0156051
678.838	0.0155414
678.916	0.0157204
678.994	0.0158718
679.072	0.0158688
679.150	0.0160560
679.228	0.0162075
679.307	0.0162270
679.385	0.0164911
679.463	0.0162522
679.541	0.0160597
679.619	0.0159396
679.697	0.0157545
679.775	0.0156117
679.853	0.0153221
679.932	0.0150390
680.010	0.0148663
680.088	0.0147680
680.166	0.0145686
680.244	0.0144321
680.322	0.0142549
680.400	0.0141940
680.478	0.0140545
680.557	0.0140256
680.635	0.0140517
680.713	0.0136816
680.791	0.0135743
680.869	0.0136342
680.947	0.0134022
681.025	0.0133032
681.103	0.0131642
681.182	0.0130400
681.260	0.0131335
681.338	0.0132079
681.416	0.0132271
681.494	0.0133727
681.572	0.0135187
681.650	0.0137534
681.728	0.0140646
681.807	0.0141862
681.885	0.0145508
681.963	0.0149054
682.041	0.0152654
682.119	0.0156184
682.197	0.0161600
682.275	0.0164725
682.353	0.0168869
682.432	0.0173627
682.510	0.0177273
682.588	0.0180821
682.666	0.0183061
682.744	0.0185055
682.822	0.0186543
682.900	0.0184612
682.978	0.0184139
683.057	0.0180018
683.135	0.0175807
683.213	0.0171721
683.291	0.0163890
683.369	0.0157729
683.447	0.0151573
683.525	0.0144807
683.603	0.0138476
683.682	0.0133480
683.760	0.0129234
683.838	0.0125542
683.916	0.0122456
683.994	0.0123073
684.072	0.0119787
684.150	0.0118645
684.228	0.0119508
684.307	0.0118662
684.385	0.0117827
684.463	0.0120110
684.541	0.0119624
684.619	0.0120203
684.697	0.0123956
684.775	0.0125549
684.853	0.0129043
684.932	0.0133012
685.010	0.0138356
685.088	0.0145514
685.166	0.0151147
685.244	0.0157323
685.322	0.0162149
685.400	0.0167833
685.478	0.0170693
685.557	0.0173145
685.635	0.0175359
685.713	0.0176691
685.791	0.0176217
685.869	0.0173746
685.947	0.0173515
686.025	0.0172311
686.103	0.0168568
686.182	0.0165353
686.260	0.0164606
686.338	0.0162726
686.416	0.0160821
686.494	0.0161051
686.572	0.0159515
686.650	0.0161041
686.728	0.0161331
686.807	0.0159270
686.885	0.0159629
686.963	0.0159869
687.041	0.0156714
687.119	0.0154475
687.197	0.0152905
687.275	0.0149216
687.353	0.0144501
687.432	0.0139690
687.510	0.0135828
687.588	0.0132812
687.666	0.0129655
687.744	0.0126101
687.822	0.0123281
687.900	0.0124648
687.978	0.0123595
688.057	0.0124286
688.135	0.0126308
688.213	0.0128552
688.291	0.0130831
688.369	0.0135886
688.447	0.0137967
688.525	0.0141596
688.603	0.0145580
688.682	0.0148415
688.760	0.0153355
688.838	0.0154079
688.916	0.0153797
688.994	0.0155824
689.072	0.0156901
689.150	0.0156729
689.228	0.0156900
689.307	0.0157214
689.385	0.0155764
689.463	0.0155692
689.541	0.0157319
689.619	0.0158886
689.697	0.0158836
689.775	0.0157557
689.853	0.0157937
689.932	0.0156201
690.010	0.0154944
690.088	0.0153481
690.166	0.0148138
690.244	0.0145638
690.322	0.0141467
690.400	0.0138428
690.478	0.0134649
690.557	0.0131828
690.635	0.0131294
690.713	0.0133350
690.791	0.0136106
690.869	0.0138588
690.947	0.0143955
691.025	0.0147838
691.103	0.0153401
691.182	0.0156247
691.260	0.0160404
691.338	0.0164611
691.416	0.0165126
691.494	0.0166331
691.572	0.0165440
691.650	0.0163212
691.728	0.0163932
691.807	0.0161495
691.885	0.0158064
691.963	0.0157968
692.041	0.0156652
692.119	0.0157516
692.197	0.0158633
692.275	0.0158936
692.353	0.0158333
692.432	0.0159473
692.510	0.0159263
692.588	0.0158436
692.666	0.0157310
692.744	0.0154615
692.822	0.0152284
692.900	0.0149532
692.978	0.0146149
693.057	0.0142530
693.135	0.0140646
693.213	0.0138538
693.291	0.0138194
693.369	0.0137012
693.447	0.0137244
693.525	0.0137283
693.603	0.0139201
693.682	0.0140208
693.760	0.0139683
693.838	0.0139046
693.916	0.0139241
693.994	0.0138290
694.072	0.0137410
694.150	0.0135056
694.228	0.0133090
694.307	0.0130284
694.385	0.0127050
694.463	0.0126652
694.541	0.0125214
694.619	0.0125581
694.697	0.0125318
694.775	0.0127402
694.853	0.0129290
694.932	0.0132063
695.010	0.0136400
695.088	0.0138188
695.166	0.0143183
695.244	0.0147973
695.322	0.0151745
695.400	0.0155588
695.478	0.0159141
695.557	0.0163791
695.635	0.0166082
695.713	0.0169317
695.791	0.0172277
695.869	0.0175262
695.947	0.0176385
696.025	0.0178040
696.103	0.0180796
696.182	0.0182413
696.260	0.0183483
696.338	0.0184846
696.416	0.0185271
696.494	0.0185468
696.572	0.0186134
696.650	0.0184740
696.728	0.0181877
696.807	0.0180532
696.885	0.0176419
696.963	0.0170821
697.041	0.0165175
697.119	0.0157584
697.197	0.0150666
697.275	0.0143971
697.353	0.0135104
697.432	0.0127435
697.510	0.0119739
697.588	0.0113295
697.666	0.0108554
697.744	0.0104045
697.822	0.00997597
697.900	0.00995369
697.978	0.00997261
698.057	0.00998787
698.135	0.0102643
698.213	0.0104632
698.291	0.0108878
698.369	0.0112128
698.447	0.0116105
698.525	0.0121120
698.603	0.0125259
698.682	0.0130372
698.760	0.0135327
698.838	0.0139497
698.916	0.0143883
698.994	0.0148175
699.072	0.0152366
699.150	0.0158608
699.228	0.0163213
699.307	0.0166367
699.385	0.0169729
699.463	0.0173240
699.541	0.0176221
699.619	0.0176521
699.697	0.0176730
699.775	0.0177792
699.853	0.0178064
699.932	0.0175427
700.010	0.0172943
700.088	0.0169892
700.166	0.0167030
700.244	0.0163196
700.322	0.0162078
700.400	0.0159617
700.478	0.0158134
700.557	0.0154847
700.635	0.0152441
700.713	0.0150967
700.791	0.0148337
700.869	0.0144603
700.947	0.0143851
701.025	0.0141446
701.103	0.0138469
701.182	0.0137222
701.260	0.0135082
701.338	0.0133569
701.416	0.0134921
701.494	0.0134609
701.572	0.0134922
701.650	0.0135759
701.728	0.0139144
701.807	0.0143114
701.885	0.0146459
701.963	0.0148968
702.041	0.0153190
702.119	0.0155790
702.197	0.0156575
702.275	0.0158662
702.353	0.0158496
702.432	0.0158365
702.510	0.0157577
702.588	0.0156802
702.666	0.0154646
702.744	0.0154191
702.822	0.0154047
702.900	0.0154239
702.978	0.0153417
703.057	0.0154137
703.135	0.0155206
703.213	0.0156332
703.291	0.0156193
703.369	0.0156672
703.447	0.0159275
703.525	0.0159918
703.603	0.0159969
703.682	0.0159598
703.760	0.0158231
703.838	0.0156693
703.916	0.0154265
703.994	0.0151004
704.072	0.0148182
704.150	0.0145071
704.228	0.0139182
704.307	0.0136982
704.385	0.0132372
704.463	0.0128864
704.541	0.0125072
704.619	0.0123475
704.697	0.0121609
704.775	0.0121623
704.853	0.0120247
704.932	0.0120016
705.010	0.0120002
705.088	0.0120743
705.166	0.0123260
705.244	0.0126040
705.322	0.0126698
705.400	0.0129015
705.478	0.0131951
705.557	0.0134331
705.635	0.0137005
705.713	0.0139664
705.791	0.0145281
705.869	0.0148067
705.947	0.0152798
706.025	0.0157977
706.103	0.0161517
706.182	0.0165309
706.260	0.0169302
706.338	0.0174517
706.416	0.0178011
706.494	0.0181707
706.572	0.0184354
706.650	0.0187878
706.728	0.0190659
706.807	0.0189826
706.885	0.0192432
706.963	0.0192748
707.041	0.0191575
707.119	0.0189510
707.197	0.0188924
707.275	0.0186774
707.353	0.0182145
707.432	0.0180563
707.510	0.0175761
707.588	0.0172521
707.666	0.0165900
707.744	0.0160474
707.822	0.0154916
707.900	0.0149783
707.978	0.0142854
708.057	0.0136971
708.135	0.0131792
708.213	0.0123275
708.291	0.0120689
708.369	0.0117368
708.447	0.0115096
708.525	0.0112909
708.603	0.0111925
708.682	0.0111620
708.760	0.0113680
708.838	0.0116378
708.916	0.0116472
708.994	0.0118237
709.072	0.0120686
709.150	0.0121637
709.228	0.0124961
709.307	0.0125325
709.385	0.0127757
709.463	0.0128599
709.541	0.0128629
709.619	0.0131271
709.697	0.0132974
709.775	0.0136412
709.853	0.0139458
709.932	0.0142558
710.010	0.0146599
710.088	0.0149321
710.166	0.0154350
710.244	0.0158899
710.322	0.0161654
710.400	0.0165335
710.478	0.0166761
710.557	0.0168248
710.635	0.0168951
710.713	0.0170058
710.791	0.0168098
710.869	0.0168276
710.947	0.0165327
711.025	0.0163000
711.103	0.0162535
711.182	0.0159820
711.260	0.0157052
711.338	0.0156828
711.416	0.0155879
711.494	0.0155621
711.572	0.0155515
711.650	0.0154624
711.728	0.0154111
711.807	0.0152464
711.885	0.0152866
711.963	0.0153115
712.041	0.0151759
712.119	0.0151385
712.197	0.0151651
712.275	0.0152280
712.353	0.0153685
712.432	0.0151895
712.510	0.0151094
712.588	0.0152679
712.666	0.0152432
712.744	0.0154446
712.822	0.0155201
712.900	0.0154691
712.978	0.0154452
713.057	0.0154902
713.135	0.0153571
713.213	0.0153133
713.291	0.0151414
713.369	0.0150592
713.447	0.0146970
713.525	0.0146807
713.603	0.0145019
713.682	0.0143307
713.760	0.0142343
713.838	0.0142540
713.916	0.0143143
713.994	0.0142493
714.072	0.0144760
714.150	0.0144301
714.228	0.0143346
714.307	0.0146091
714.385	0.0146642
714.463	0.0148114
714.541	0.0148596
714.619	0.0147908
714.697	0.0148409
714.775	0.0149034
714.853	0.0149201
714.932	0.0147155
715.010	0.0146813
715.088	0.0146552
715.166	0.0142709
715.244	0.0141447
715.322	0.0141962
715.400	0.0140030
715.478	0.0140810
715.557	0.0141756
715.635	0.0141215
715.713	0.0142537
715.791	0.0142835
715.869	0.0142471
715.947	0.0141731
716.025	0.0142535
716.103	0.0142318
716.182	0.0141998
716.260	0.0143888
716.338	0.0142648
716.416	0.0142793
716.494	0.0143580
716.572	0.0143071
716.650	0.0144337
716.728	0.0143895
716.807	0.0144056
716.885	0.0145374
716.963	0.0145161
717.041	0.0146175
717.119	0.0146805
717.197	0.0146592
717.275	0.0146513
717.353	0.0145473
717.432	0.0145658
717.510	0.0146366
717.588	0.0146578
717.666	0.0146761
717.744	0.0146181
717.822	0.0143969
717.900	0.0146378
717.978	0.0146357
718.057	0.0148139
718.135	0.0149021
718.213	0.0147520
718.291	0.0148466
718.369	0.0151093
718.447	0.0151601
718.525	0.0155030
718.603	0.0157427
718.682	0.0158675
718.760	0.0158523
718.838	0.0161117
718.916	0.0159715
718.994	0.0161262
719.072	0.0161216
719.150	0.0159611
719.228	0.0161105
719.307	0.0159875
719.385	0.0159231
719.463	0.0159526
719.541	0.0160961
719.619	0.0157960
719.697	0.0158979
719.775	0.0159761
719.853	0.0158826
719.932	0.0157374
720.010	0.0159612
720.088	0.0159087
720.166	0.0158578
720.244	0.0158456
720.322	0.0157156
720.400	0.0157851
720.478	0.0156203
720.557	0.0154002
720.635	0.0151687
720.713	0.0149805
720.791	0.0147153
720.869	0.0142623
720.947	0.0140287
721.025	0.0137634
721.103	0.0134221
721.182	0.0129242
721.260	0.0128258
721.338	0.0125744
721.416	0.0121719
721.494	0.0121384
721.572	0.0119650
721.650	0.0119582
721.728	0.0119242
721.807	0.0119753
721.885	0.0120206
721.963	0.0124052
722.041	0.0126218
722.119	0.0128545
722.197	0.0134406
722.275	0.0137806
722.353	0.0141118
722.432	0.0144653
722.510	0.0146999
722.588	0.0151420
722.666	0.0153126
722.744	0.0156370
722.822	0.0155766
722.900	0.0154300
722.978	0.0154788
723.057	0.0153904
723.135	0.0151636
723.213	0.0151552
723.291	0.0147861
723.369	0.0146118
723.447	0.0144389
723.525	0.0144164
723.603	0.0143758
723.682	0.0143176
723.760	0.0145505
723.838	0.0147408
723.916	0.0148603
723.994	0.0151945
724.072	0.0153992
724.150	0.0156454
724.228	0.0156299
724.307	0.0158489
724.385	0.0158973
724.463	0.0159157
724.541	0.0160129
724.619	0.0160704
724.697	0.0160654
724.775	0.0160915
724.853	0.0161005
724.932	0.0161872
725.010	0.0161111
725.088	0.0160791
725.166	0.0161549
725.244	0.0161094
725.322	0.0160538
725.400	0.0160557
725.478	0.0160527
725.557	0.0160104
725.635	0.0158831
725.713	0.0158858
725.791	0.0158955
725.869	0.0158285
725.947	0.0159099
726.025	0.0159464
726.103	0.0158966
726.182	0.0159668
726.260	0.0160289
726.338	0.0159330
726.416	0.0159220
726.494	0.0159380
726.572	0.0159959
726.650	0.0156959
726.728	0.0154057
726.807	0.0152203
726.885	0.0149458
726.963	0.0144749
727.041	0.0140436
727.119	0.0137489
727.197	0.0132301
727.275	0.0127464
727.353	0.0122305
727.432	0.0118810
727.510	0.0114849
727.588	0.0114157
727.666	0.0113145
727.744	0.0112519
727.822	0.0112759
727.900	0.0113715
727.978	0.0116179
728.057	0.0119267
728.135	0.0123220
728.213	0.0126881
728.291	0.0131396
728.369	0.0135766
728.447	0.0138271
728.525	0.0142488
728.603	0.0145702
728.682	0.0148791
728.760	0.0152453
728.838	0.0155534
728.916	0.0158138
728.994	0.0159608
729.072	0.0159409
729.150	0.0161864
729.228	0.0162868
729.307	0.0160411
729.385	0.0158648
729.463	0.0158131
729.541	0.0156685
729.619	0.0155512
729.697	0.0153400
729.775	0.0153181
729.853	0.0152824
729.932	0.0152295
730.010	0.0151961
730.088	0.0153414
730.166	0.0153801
730.244	0.0153590
730.322	0.0154465
730.400	0.0155238
730.478	0.0156667
730.557	0.0157640
730.635	0.0157110
730.713	0.0158047
730.791	0.0156855
730.869	0.0157975
730.947	0.0157232
731.025	0.0158309
731.103	0.0157505
731.182	0.0155262
731.260	0.0155537
731.338	0.0156767
731.416	0.0156999
731.494	0.0155384
731.572	0.0155762
731.650	0.0155736
731.728	0.0156462
731.807	0.0155305
731.885	0.0155562
731.963	0.0155679
732.041	0.0156502
732.119	0.0155847
732.197	0.0157079
732.275	0.0156808
732.353	0.0157965
732.432	0.0157729
732.510	0.0160049
732.588	0.0159441
732.666	0.0159510
732.744	0.0159025
732.822	0.0158555
732.900	0.0157471
732.978	0.0156741
733.057	0.0155241
733.135	0.0152708
733.213	0.0149394
733.291	0.0147825
733.369	0.0146357
733.447	0.0143248
733.525	0.0140096
733.603	0.0137109
733.682	0.0133317
733.760	0.0131939
733.838	0.0128719
733.916	0.0126371
733.994	0.0126485
734.072	0.0125996
734.150	0.0125866
734.228	0.0126512
734.307	0.0127402
734.385	0.0128403
734.463	0.0130001
734.541	0.0132531
734.619	0.0133517
734.697	0.0137619
734.775	0.0141280
734.853	0.0143485
734.932	0.0145152
735.010	0.0147599
735.088	0.0149333
735.166	0.0150771
735.244	0.0151071
735.322	0.0151812
735.400	0.0151951
735.478	0.0151765
735.557	0.0153806
735.635	0.0151744
735.713	0.0150754
