05/14/2022	19:24:45	Ver.	4.1	UNKNOWN
Optical Delay	650.009681	Delta X		0.078125	Sweeps	1	Scan Rate	0/0
Coordinates	Axis 1	NaN	Axis 2	NaN	Axis 3	NaN	Axis 4	NaN	Axis 5	NaN	Axis 6	0.000000
TX Power	0.000000	RX Power	0.000000

650.010	0.0147509
650.088	0.0148878
650.166	0.0148503
650.244	0.0148148
650.322	0.0147630
650.400	0.0147161
650.478	0.0146933
650.557	0.0148193
650.635	0.0147889
650.713	0.0147069
650.791	0.0147947
650.869	0.0148533
650.947	0.0148798
651.025	0.0148225
651.103	0.0147607
651.182	0.0148395
651.260	0.0147903
651.338	0.0148810
651.416	0.0148792
651.494	0.0147570
651.572	0.0148074
651.650	0.0148167
651.728	0.0147630
651.807	0.0148778
651.885	0.0148738
651.963	0.0147685
652.041	0.0148121
652.119	0.0148891
652.197	0.0147822
652.275	0.0148135
652.353	0.0147907
652.432	0.0147713
652.510	0.0146909
652.588	0.0147651
652.666	0.0147587
652.744	0.0148463
652.822	0.0148697
652.900	0.0147771
652.978	0.0147684
653.057	0.0148740
653.135	0.0148362
653.213	0.0147752
653.291	0.0148997
653.369	0.0147523
653.447	0.0148632
653.525	0.0149109
653.603	0.0148276
653.682	0.0147637
653.760	0.0147172
653.838	0.0148505
653.916	0.0148356
653.994	0.0148045
654.072	0.0147171
654.150	0.0147707
654.228	0.0149011
654.307	0.0148803
654.385	0.0147884
654.463	0.0148970
654.541	0.0147519
654.619	0.0147659
654.697	0.0148594
654.775	0.0147751
654.853	0.0148125
654.932	0.0146493
655.010	0.0148766
655.088	0.0148009
655.166	0.0147358
655.244	0.0147556
655.322	0.0148502
655.400	0.0146707
655.478	0.0147683
655.557	0.0148407
655.635	0.0148306
655.713	0.0147625
655.791	0.0147778
655.869	0.0146188
655.947	0.0146318
656.025	0.0148036
656.103	0.0148943
656.182	0.0147665
656.260	0.0147314
656.338	0.0147968
656.416	0.0147224
656.494	0.0147524
656.572	0.0147977
656.650	0.0147345
656.728	0.0146391
656.807	0.0147752
656.885	0.0147672
656.963	0.0147976
657.041	0.0146671
657.119	0.0147549
657.197	0.0148003
657.275	0.0147781
657.353	0.0147129
657.432	0.0147778
657.510	0.0147826
657.588	0.0147483
657.666	0.0147391
657.744	0.0147794
657.822	0.0148546
657.900	0.0148819
657.978	0.0147504
658.057	0.0148812
658.135	0.0147868
658.213	0.0146747
658.291	0.0147364
658.369	0.0148218
658.447	0.0146890
658.525	0.0148066
658.603	0.0148866
658.682	0.0147081
658.760	0.0147583
658.838	0.0146808
658.916	0.0147662
658.994	0.0146701
659.072	0.0147787
659.150	0.0148382
659.228	0.0148316
659.307	0.0147141
659.385	0.0147083
659.463	0.0148069
659.541	0.0147544
659.619	0.0147081
659.697	0.0148141
659.775	0.0148532
659.853	0.0146935
659.932	0.0148091
660.010	0.0147194
660.088	0.0147343
660.166	0.0147137
660.244	0.0145864
660.322	0.0146855
660.400	0.0147044
660.478	0.0148849
660.557	0.0147860
660.635	0.0146745
660.713	0.0146072
660.791	0.0147190
660.869	0.0147890
660.947	0.0149136
661.025	0.0147787
661.103	0.0147400
661.182	0.0147752
661.260	0.0146235
661.338	0.0147552
661.416	0.0147485
661.494	0.0147717
661.572	0.0147749
661.650	0.0147442
661.728	0.0147272
661.807	0.0146868
661.885	0.0148168
661.963	0.0148032
662.041	0.0146916
662.119	0.0147910
662.197	0.0146911
662.275	0.0147634
662.353	0.0148505
662.432	0.0148484
662.510	0.0148592
662.588	0.0148347
662.666	0.0147604
662.744	0.0147596
662.822	0.0148827
662.900	0.0148145
662.978	0.0147753
663.057	0.0147676
663.135	0.0149024
663.213	0.0148004
663.291	0.0148009
663.369	0.0147465
663.447	0.0148748
663.525	0.0149564
663.603	0.0148488
663.682	0.0147955
663.760	0.0148159
663.838	0.0148343
663.916	0.0148730
663.994	0.0147981
664.072	0.0149393
664.150	0.0149247
664.228	0.0148528
664.307	0.0148390
664.385	0.0148283
664.463	0.0147878
664.541	0.0147868
664.619	0.0148310
664.697	0.0148873
664.775	0.0149271
664.853	0.0149097
664.932	0.0148779
665.010	0.0148593
665.088	0.0149002
665.166	0.0147648
665.244	0.0148409
665.322	0.0147749
665.400	0.0148131
665.478	0.0148425
665.557	0.0146777
665.635	0.0149534
665.713	0.0148061
665.791	0.0148064
665.869	0.0148488
665.947	0.0147948
666.025	0.0147090
666.103	0.0148102
666.182	0.0148958
666.260	0.0149033
666.338	0.0148325
666.416	0.0147701
666.494	0.0147595
666.572	0.0148827
666.650	0.0148804
666.728	0.0147781
666.807	0.0148879
666.885	0.0148262
666.963	0.0147707
667.041	0.0148165
667.119	0.0148106
667.197	0.0149115
667.275	0.0149126
667.353	0.0148844
667.432	0.0148988
667.510	0.0148740
667.588	0.0148171
667.666	0.0147997
667.744	0.0148629
667.822	0.0149437
667.900	0.0148078
667.978	0.0149679
668.057	0.0148767
668.135	0.0148414
668.213	0.0147937
668.291	0.0149063
668.369	0.0148676
668.447	0.0147433
668.525	0.0148077
668.603	0.0147237
668.682	0.0148471
668.760	0.0149229
668.838	0.0148273
668.916	0.0148211
668.994	0.0148016
669.072	0.0147344
669.150	0.0145953
669.228	0.0147704
669.307	0.0148443
669.385	0.0148134
669.463	0.0146799
669.541	0.0149026
669.619	0.0148329
669.697	0.0147891
669.775	0.0148012
669.853	0.0150323
669.932	0.0150411
670.010	0.0148431
670.088	0.0149298
670.166	0.0151102
670.244	0.0149525
670.322	0.0149342
670.400	0.0149356
670.478	0.0149564
670.557	0.0147410
670.635	0.0147992
670.713	0.0147125
670.791	0.0147693
670.869	0.0147425
670.947	0.0147120
671.025	0.0146153
671.103	0.0146631
671.182	0.0145089
671.260	0.0143900
671.338	0.0146436
671.416	0.0148529
671.494	0.0148740
671.572	0.0148862
671.650	0.0150079
671.728	0.0150653
671.807	0.0152240
671.885	0.0152005
671.963	0.0153645
672.041	0.0154348
672.119	0.0156238
672.197	0.0154229
672.275	0.0151440
672.353	0.0150658
672.432	0.0148969
672.510	0.0149355
672.588	0.0146374
672.666	0.0143240
672.744	0.0142135
672.822	0.0140949
672.900	0.0138956
672.978	0.0136864
673.057	0.0137689
673.135	0.0138820
673.213	0.0139414
673.291	0.0139286
673.369	0.0142106
673.447	0.0143456
673.525	0.0146854
673.603	0.0149472
673.682	0.0152341
673.760	0.0155906
673.838	0.0158695
673.916	0.0159876
673.994	0.0160474
674.072	0.0161389
674.150	0.0162395
674.228	0.0163152
674.307	0.0161190
674.385	0.0160372
674.463	0.0157462
674.541	0.0155888
674.619	0.0153510
674.697	0.0150055
674.775	0.0147939
674.853	0.0147018
674.932	0.0145086
675.010	0.0140568
675.088	0.0138336
675.166	0.0137278
675.244	0.0135767
675.322	0.0135456
675.400	0.0134226
675.478	0.0134870
675.557	0.0133421
675.635	0.0134716
675.713	0.0135335
675.791	0.0134708
675.869	0.0137311
675.947	0.0140797
676.025	0.0139735
676.103	0.0143293
676.182	0.0145313
676.260	0.0148822
676.338	0.0150276
676.416	0.0153124
676.494	0.0155807
676.572	0.0157908
676.650	0.0159809
676.728	0.0162361
676.807	0.0163379
676.885	0.0165229
676.963	0.0164037
677.041	0.0161893
677.119	0.0160500
677.197	0.0158972
677.275	0.0159486
677.353	0.0156573
677.432	0.0153220
677.510	0.0151108
677.588	0.0147580
677.666	0.0147204
677.744	0.0145517
677.822	0.0142953
677.900	0.0141012
677.978	0.0141079
678.057	0.0140678
678.135	0.0139022
678.213	0.0139521
678.291	0.0141073
678.369	0.0141270
678.447	0.0143347
678.525	0.0142880
678.603	0.0143840
678.682	0.0145222
678.760	0.0146197
678.838	0.0146325
678.916	0.0145844
678.994	0.0144038
679.072	0.0144104
679.150	0.0144103
679.228	0.0144801
679.307	0.0144026
679.385	0.0141351
679.463	0.0141521
679.541	0.0141805
679.619	0.0140922
679.697	0.0139671
679.775	0.0139004
679.853	0.0139107
679.932	0.0138359
680.010	0.0141206
680.088	0.0142629
680.166	0.0141943
680.244	0.0143710
680.322	0.0145374
680.400	0.0146576
680.478	0.0149329
680.557	0.0150489
680.635	0.0153447
680.713	0.0157072
680.791	0.0159172
680.869	0.0160305
680.947	0.0161950
681.025	0.0165208
681.103	0.0167304
681.182	0.0169398
681.260	0.0169181
681.338	0.0168655
681.416	0.0168565
681.494	0.0167410
681.572	0.0167707
681.650	0.0165552
681.728	0.0163757
681.807	0.0162963
681.885	0.0161061
681.963	0.0157315
682.041	0.0155176
682.119	0.0153114
682.197	0.0148713
682.275	0.0145306
682.353	0.0142046
682.432	0.0136758
682.510	0.0131664
682.588	0.0126147
682.666	0.0120166
682.744	0.0116002
682.822	0.0112871
682.900	0.0108304
682.978	0.0104401
683.057	0.0103171
683.135	0.0103623
683.213	0.0102990
683.291	0.0108382
683.369	0.0112835
683.447	0.0117429
683.525	0.0125421
683.603	0.0132872
683.682	0.0141989
683.760	0.0151408
683.838	0.0156722
683.916	0.0164197
683.994	0.0172340
684.072	0.0178409
684.150	0.0182389
684.228	0.0184160
684.307	0.0185715
684.385	0.0187624
684.463	0.0186967
684.541	0.0188009
684.619	0.0186284
684.697	0.0186271
684.775	0.0183609
684.853	0.0182404
684.932	0.0180075
685.010	0.0178637
685.088	0.0176962
685.166	0.0172656
685.244	0.0167561
685.322	0.0162858
685.400	0.0156658
685.478	0.0151246
685.557	0.0144741
685.635	0.0138209
685.713	0.0132078
685.791	0.0126485
685.869	0.0122834
685.947	0.0118265
686.025	0.0117766
686.103	0.0117426
686.182	0.0116062
686.260	0.0117060
686.338	0.0119038
686.416	0.0120692
686.494	0.0123227
686.572	0.0127363
686.650	0.0128528
686.728	0.0130516
686.807	0.0134386
686.885	0.0135384
686.963	0.0138678
687.041	0.0140125
687.119	0.0140924
687.197	0.0142688
687.275	0.0144004
687.353	0.0144678
687.432	0.0147260
687.510	0.0145449
687.588	0.0147321
687.666	0.0147718
687.744	0.0148611
687.822	0.0149626
687.900	0.0151867
687.978	0.0153209
688.057	0.0154636
688.135	0.0157668
688.213	0.0159371
688.291	0.0162824
688.369	0.0165894
688.447	0.0166116
688.525	0.0168723
688.603	0.0171627
688.682	0.0171183
688.760	0.0173392
688.838	0.0174445
688.916	0.0173775
688.994	0.0173149
689.072	0.0172798
689.150	0.0172346
689.228	0.0169765
689.307	0.0168176
689.385	0.0167197
689.463	0.0165182
689.541	0.0160493
689.619	0.0155909
689.697	0.0152933
689.775	0.0147219
689.853	0.0143366
689.932	0.0137885
690.010	0.0133267
690.088	0.0129148
690.166	0.0126642
690.244	0.0121489
690.322	0.0119294
690.400	0.0118278
690.478	0.0118682
690.557	0.0119353
690.635	0.0121048
690.713	0.0124686
690.791	0.0128120
690.869	0.0131904
690.947	0.0136024
691.025	0.0141103
691.103	0.0144724
691.182	0.0149388
691.260	0.0150714
691.338	0.0152231
691.416	0.0154605
691.494	0.0155005
691.572	0.0157030
691.650	0.0158601
691.728	0.0158454
691.807	0.0157878
691.885	0.0159151
691.963	0.0159644
692.041	0.0159872
692.119	0.0157476
692.197	0.0158309
692.275	0.0157811
692.353	0.0155428
692.432	0.0155913
692.510	0.0153712
692.588	0.0152813
692.666	0.0149986
692.744	0.0147623
692.822	0.0146484
692.900	0.0145715
692.978	0.0142647
693.057	0.0141790
693.135	0.0140263
693.213	0.0140732
693.291	0.0137046
693.369	0.0134608
693.447	0.0134116
693.525	0.0134624
693.603	0.0134828
693.682	0.0133096
693.760	0.0133451
693.838	0.0134802
693.916	0.0137153
693.994	0.0141512
694.072	0.0143527
694.150	0.0147910
694.228	0.0152065
694.307	0.0156759
694.385	0.0159820
694.463	0.0159977
694.541	0.0162947
694.619	0.0166782
694.697	0.0166248
694.775	0.0166960
694.853	0.0166615
694.932	0.0166934
695.010	0.0167208
695.088	0.0165186
695.166	0.0164526
695.244	0.0164283
695.322	0.0164381
695.400	0.0162497
695.478	0.0161899
695.557	0.0161581
695.635	0.0159763
695.713	0.0157542
695.791	0.0157421
695.869	0.0154748
695.947	0.0151476
696.025	0.0148579
696.103	0.0145473
696.182	0.0144292
696.260	0.0139729
696.338	0.0137305
696.416	0.0135959
696.494	0.0133001
696.572	0.0130470
696.650	0.0129102
696.728	0.0129700
696.807	0.0128529
696.885	0.0128581
696.963	0.0128467
697.041	0.0127021
697.119	0.0128936
697.197	0.0129815
697.275	0.0128105
697.353	0.0127196
697.432	0.0128868
697.510	0.0128573
697.588	0.0130771
697.666	0.0130881
697.744	0.0130406
697.822	0.0133127
697.900	0.0133437
697.978	0.0134148
698.057	0.0136264
698.135	0.0137908
698.213	0.0139773
698.291	0.0142336
698.369	0.0146571
698.447	0.0151041
698.525	0.0152811
698.603	0.0156516
698.682	0.0161093
698.760	0.0165478
698.838	0.0168557
698.916	0.0171061
698.994	0.0174373
699.072	0.0176762
699.150	0.0178275
699.228	0.0178603
699.307	0.0177342
699.385	0.0177825
699.463	0.0176679
699.541	0.0174537
699.619	0.0174388
699.697	0.0171267
699.775	0.0168703
699.853	0.0167149
699.932	0.0164559
700.010	0.0161706
700.088	0.0160104
700.166	0.0157680
700.244	0.0155962
700.322	0.0152498
700.400	0.0149009
700.478	0.0147160
700.557	0.0142589
700.635	0.0139172
700.713	0.0135196
700.791	0.0132441
700.869	0.0130257
700.947	0.0126988
701.025	0.0124820
701.103	0.0123454
701.182	0.0121296
701.260	0.0121659
701.338	0.0121204
701.416	0.0122800
701.494	0.0123962
701.572	0.0124763
701.650	0.0126209
701.728	0.0128628
701.807	0.0130556
701.885	0.0131661
701.963	0.0135048
702.041	0.0137926
702.119	0.0139954
702.197	0.0140359
702.275	0.0142500
702.353	0.0143320
702.432	0.0144814
702.510	0.0146811
702.588	0.0149113
702.666	0.0150169
702.744	0.0151524
702.822	0.0152789
702.900	0.0153407
702.978	0.0154868
703.057	0.0155829
703.135	0.0155887
703.213	0.0157121
703.291	0.0155683
703.369	0.0154080
703.447	0.0152375
703.525	0.0151383
703.603	0.0150082
703.682	0.0148502
703.760	0.0148515
703.838	0.0147231
703.916	0.0146234
703.994	0.0147367
704.072	0.0147577
704.150	0.0147063
704.228	0.0150340
704.307	0.0150196
704.385	0.0153326
704.463	0.0154790
704.541	0.0154751
704.619	0.0157127
704.697	0.0156696
704.775	0.0157417
704.853	0.0158395
704.932	0.0158388
705.010	0.0159827
705.088	0.0160295
705.166	0.0160725
705.244	0.0161295
705.322	0.0160196
705.400	0.0161889
705.478	0.0162548
705.557	0.0162530
705.635	0.0163781
705.713	0.0163604
705.791	0.0163825
705.869	0.0161745
705.947	0.0160505
706.025	0.0159544
706.103	0.0157825
706.182	0.0154566
706.260	0.0150883
706.338	0.0147005
706.416	0.0144379
706.494	0.0137684
706.572	0.0134917
706.650	0.0132377
706.728	0.0128543
706.807	0.0124922
706.885	0.0121668
706.963	0.0120909
707.041	0.0120382
707.119	0.0119944
707.197	0.0120550
707.275	0.0122107
707.353	0.0124105
707.432	0.0126851
707.510	0.0130293
707.588	0.0131714
707.666	0.0135628
707.744	0.0139561
707.822	0.0141905
707.900	0.0142831
707.978	0.0145432
708.057	0.0147873
708.135	0.0148105
708.213	0.0149711
708.291	0.0149612
708.369	0.0146840
708.447	0.0148167
708.525	0.0147454
708.603	0.0145066
708.682	0.0146426
708.760	0.0146358
708.838	0.0146851
708.916	0.0146502
708.994	0.0146992
709.072	0.0148645
709.150	0.0150101
709.228	0.0152036
709.307	0.0153333
709.385	0.0154988
709.463	0.0156818
709.541	0.0157346
709.619	0.0158638
709.697	0.0160764
709.775	0.0160040
709.853	0.0161785
709.932	0.0160910
710.010	0.0160347
710.088	0.0161745
710.166	0.0161444
710.244	0.0161325
710.322	0.0161214
710.400	0.0164027
710.478	0.0163989
710.557	0.0162486
710.635	0.0164830
710.713	0.0163406
710.791	0.0162964
710.869	0.0163821
710.947	0.0163202
711.025	0.0162582
711.103	0.0161893
711.182	0.0160032
711.260	0.0157686
711.338	0.0154486
711.416	0.0152990
711.494	0.0149603
711.572	0.0149599
711.650	0.0145076
711.728	0.0143037
711.807	0.0143088
711.885	0.0139992
711.963	0.0139008
712.041	0.0138084
712.119	0.0136983
712.197	0.0134985
712.275	0.0135068
712.353	0.0134055
712.432	0.0132609
712.510	0.0131649
712.588	0.0132853
712.666	0.0132963
712.744	0.0132472
712.822	0.0132478
712.900	0.0133075
712.978	0.0134322
713.057	0.0133772
713.135	0.0135268
713.213	0.0134988
713.291	0.0137165
713.369	0.0137474
713.447	0.0137968
713.525	0.0140708
713.603	0.0141675
713.682	0.0141822
713.760	0.0142657
713.838	0.0141952
713.916	0.0143505
713.994	0.0143117
714.072	0.0145444
714.150	0.0146369
714.228	0.0145963
714.307	0.0149586
714.385	0.0149112
714.463	0.0151687
714.541	0.0153422
714.619	0.0153678
714.697	0.0158186
714.775	0.0159285
714.853	0.0161459
714.932	0.0162177
715.010	0.0164056
715.088	0.0164297
715.166	0.0163815
715.244	0.0163763
715.322	0.0162478
715.400	0.0161803
715.478	0.0159463
715.557	0.0157797
715.635	0.0157238
715.713	0.0156314
715.791	0.0156629
715.869	0.0155391
715.947	0.0154043
716.025	0.0153326
716.103	0.0152808
716.182	0.0150706
716.260	0.0150899
716.338	0.0151271
716.416	0.0150607
716.494	0.0151174
716.572	0.0150543
716.650	0.0151035
716.728	0.0151215
716.807	0.0148441
716.885	0.0149609
716.963	0.0151137
717.041	0.0149341
717.119	0.0149409
717.197	0.0147667
717.275	0.0147308
717.353	0.0146368
717.432	0.0146036
717.510	0.0143960
717.588	0.0144675
717.666	0.0143845
717.744	0.0142970
717.822	0.0142682
717.900	0.0141488
717.978	0.0141251
718.057	0.0140771
718.135	0.0140799
718.213	0.0141956
718.291	0.0140359
718.369	0.0141188
718.447	0.0141810
718.525	0.0141605
718.603	0.0142507
718.682	0.0143571
718.760	0.0143516
718.838	0.0145845
718.916	0.0146574
718.994	0.0147710
719.072	0.0146539
719.150	0.0148611
719.228	0.0150426
719.307	0.0149739
719.385	0.0149674
719.463	0.0148248
719.541	0.0149007
719.619	0.0148433
719.697	0.0147569
719.775	0.0147059
719.853	0.0145900
719.932	0.0146091
720.010	0.0145907
720.088	0.0146215
720.166	0.0143896
720.244	0.0144859
720.322	0.0146045
720.400	0.0146629
720.478	0.0144500
720.557	0.0146672
720.635	0.0148351
720.713	0.0146487
720.791	0.0146858
720.869	0.0148226
720.947	0.0147499
721.025	0.0149061
721.103	0.0148911
721.182	0.0149245
721.260	0.0150416
721.338	0.0150262
721.416	0.0151118
721.494	0.0150903
721.572	0.0151421
721.650	0.0150385
721.728	0.0150328
721.807	0.0150324
721.885	0.0149615
721.963	0.0148441
722.041	0.0148672
722.119	0.0147356
722.197	0.0147189
722.275	0.0147214
722.353	0.0145483
722.432	0.0146396
722.510	0.0147010
722.588	0.0147401
722.666	0.0147887
722.744	0.0147224
722.822	0.0148866
722.900	0.0148830
722.978	0.0149557
723.057	0.0149110
723.135	0.0148290
723.213	0.0148061
723.291	0.0147172
723.369	0.0145882
723.447	0.0145557
723.525	0.0145149
723.603	0.0145269
723.682	0.0144121
723.760	0.0145450
723.838	0.0143394
723.916	0.0145588
723.994	0.0146485
724.072	0.0147623
724.150	0.0147775
724.228	0.0150445
724.307	0.0151720
724.385	0.0152127
724.463	0.0153128
724.541	0.0155268
724.619	0.0156189
724.697	0.0157760
724.775	0.0156155
724.853	0.0157375
724.932	0.0157225
725.010	0.0156940
725.088	0.0156401
725.166	0.0155126
725.244	0.0155110
725.322	0.0153266
725.400	0.0151058
725.478	0.0151176
725.557	0.0148619
725.635	0.0147498
725.713	0.0145535
725.791	0.0144035
725.869	0.0143346
725.947	0.0140357
726.025	0.0139590
726.103	0.0139605
726.182	0.0138315
726.260	0.0136837
726.338	0.0137266
726.416	0.0136897
726.494	0.0138315
726.572	0.0138245
726.650	0.0137421
726.728	0.0137226
726.807	0.0139015
726.885	0.0141710
726.963	0.0141267
727.041	0.0141154
727.119	0.0142986
727.197	0.0143652
727.275	0.0143918
727.353	0.0144747
727.432	0.0143771
727.510	0.0143361
727.588	0.0145058
727.666	0.0144066
727.744	0.0142476
727.822	0.0141965
727.900	0.0139964
727.978	0.0141903
728.057	0.0140382
728.135	0.0141083
728.213	0.0143154
728.291	0.0144030
728.369	0.0145340
728.447	0.0145558
728.525	0.0147464
728.603	0.0149216
728.682	0.0150743
728.760	0.0151419
728.838	0.0152383
728.916	0.0154211
728.994	0.0154725
729.072	0.0156818
729.150	0.0158060
729.228	0.0158443
729.307	0.0159580
729.385	0.0159756
729.463	0.0160908
729.541	0.0161057
729.619	0.0161095
729.697	0.0160644
729.775	0.0161591
729.853	0.0162311
729.932	0.0163171
730.010	0.0164021
730.088	0.0163290
730.166	0.0161642
730.244	0.0162110
730.322	0.0160882
730.400	0.0159536
730.478	0.0159451
730.557	0.0158025
730.635	0.0156263
730.713	0.0154858
730.791	0.0156269
730.869	0.0155605
730.947	0.0153435
731.025	0.0152921
731.103	0.0153002
731.182	0.0150105
731.260	0.0149770
731.338	0.0148044
731.416	0.0145749
731.494	0.0143922
731.572	0.0142846
731.650	0.0142603
731.728	0.0139267
731.807	0.0137082
731.885	0.0134283
731.963	0.0133806
732.041	0.0133801
732.119	0.0130717
732.197	0.0129047
732.275	0.0127728
732.353	0.0127016
732.432	0.0125885
732.510	0.0127650
732.588	0.0127280
732.666	0.0127832
732.744	0.0130600
732.822	0.0130619
732.900	0.0133260
732.978	0.0137372
733.057	0.0138152
733.135	0.0140264
733.213	0.0142339
733.291	0.0143681
733.369	0.0146838
733.447	0.0149448
733.525	0.0150708
733.603	0.0152072
733.682	0.0154765
733.760	0.0154845
733.838	0.0156460
733.916	0.0156289
733.994	0.0155864
734.072	0.0156200
734.150	0.0155504
734.228	0.0154149
734.307	0.0153765
734.385	0.0152249
734.463	0.0152647
734.541	0.0150647
734.619	0.0150156
734.697	0.0149458
734.775	0.0150073
734.853	0.0152943
734.932	0.0154193
735.010	0.0152587
735.088	0.0156262
735.166	0.0155041
735.244	0.0155173
735.322	0.0156403
735.400	0.0155750
735.478	0.0156570
735.557	0.0157763
735.635	0.0157033
735.713	0.0155982
