05/14/2022	19:25:00	Ver.	4.1	UNKNOWN
Optical Delay	650.009681	Delta X		0.078125	Sweeps	1	Scan Rate	0/0
Coordinates	Axis 1	NaN	Axis 2	NaN	Axis 3	NaN	Axis 4	NaN	Axis 5	NaN	Axis 6	0.000000
TX Power	0.000000	RX Power	0.000000

650.010	0.0148360
650.088	0.0148394
650.166	0.0147272
650.244	0.0147832
650.322	0.0148009
650.400	0.0147107
650.478	0.0148929
650.557	0.0148331
650.635	0.0148457
650.713	0.0147620
650.791	0.0147270
650.869	0.0146713
650.947	0.0148809
651.025	0.0147775
651.103	0.0147722
651.182	0.0147607
651.260	0.0147091
651.338	0.0147185
651.416	0.0147176
651.494	0.0146873
651.572	0.0148959
651.650	0.0146953
651.728	0.0147429
651.807	0.0147504
651.885	0.0147588
651.963	0.0147735
652.041	0.0148071
652.119	0.0147405
652.197	0.0147401
652.275	0.0148640
652.353	0.0147996
652.432	0.0147451
652.510	0.0147769
652.588	0.0147782
652.666	0.0148267
652.744	0.0147574
652.822	0.0147481
652.900	0.0148296
652.978	0.0146738
653.057	0.0147300
653.135	0.0147116
653.213	0.0149056
653.291	0.0148328
653.369	0.0148586
653.447	0.0148838
653.525	0.0147749
653.603	0.0147466
653.682	0.0147860
653.760	0.0147088
653.838	0.0147421
653.916	0.0148315
653.994	0.0149612
654.072	0.0148652
654.150	0.0147425
654.228	0.0148802
654.307	0.0147733
654.385	0.0149252
654.463	0.0148852
654.541	0.0148593
654.619	0.0148190
654.697	0.0148151
654.775	0.0147538
654.853	0.0148286
654.932	0.0149501
655.010	0.0149064
655.088	0.0147225
655.166	0.0148114
655.244	0.0148891
655.322	0.0148482
655.400	0.0147734
655.478	0.0147314
655.557	0.0148051
655.635	0.0149039
655.713	0.0147713
655.791	0.0149062
655.869	0.0147843
655.947	0.0149041
656.025	0.0149173
656.103	0.0147163
656.182	0.0147836
656.260	0.0148497
656.338	0.0148183
656.416	0.0148604
656.494	0.0148662
656.572	0.0148237
656.650	0.0148657
656.728	0.0149406
656.807	0.0148975
656.885	0.0149146
656.963	0.0148238
657.041	0.0150427
657.119	0.0148547
657.197	0.0148295
657.275	0.0148003
657.353	0.0147318
657.432	0.0148328
657.510	0.0147968
657.588	0.0148129
657.666	0.0149339
657.744	0.0149863
657.822	0.0149518
657.900	0.0149172
657.978	0.0148694
658.057	0.0148842
658.135	0.0148005
658.213	0.0149393
658.291	0.0149218
658.369	0.0149091
658.447	0.0148650
658.525	0.0148339
658.603	0.0148462
658.682	0.0149036
658.760	0.0148310
658.838	0.0148442
658.916	0.0150990
658.994	0.0148335
659.072	0.0148495
659.150	0.0149276
659.228	0.0149426
659.307	0.0149570
659.385	0.0150001
659.463	0.0149297
659.541	0.0149131
659.619	0.0148585
659.697	0.0149527
659.775	0.0149250
659.853	0.0147990
659.932	0.0149764
660.010	0.0149137
660.088	0.0148045
660.166	0.0148010
660.244	0.0148109
660.322	0.0148550
660.400	0.0149320
660.478	0.0149435
660.557	0.0149809
660.635	0.0147952
660.713	0.0148306
660.791	0.0148580
660.869	0.0147386
660.947	0.0148335
661.025	0.0149255
661.103	0.0148766
661.182	0.0149075
661.260	0.0147768
661.338	0.0147598
661.416	0.0147908
661.494	0.0148273
661.572	0.0148017
661.650	0.0147697
661.728	0.0147736
661.807	0.0148808
661.885	0.0147758
661.963	0.0147572
662.041	0.0149125
662.119	0.0148296
662.197	0.0148167
662.275	0.0148938
662.353	0.0148637
662.432	0.0147150
662.510	0.0148045
662.588	0.0148013
662.666	0.0148911
662.744	0.0148256
662.822	0.0148660
662.900	0.0148119
662.978	0.0147937
663.057	0.0147897
663.135	0.0146104
663.213	0.0148260
663.291	0.0147997
663.369	0.0149394
663.447	0.0149279
663.525	0.0149071
663.603	0.0148679
663.682	0.0147986
663.760	0.0148322
663.838	0.0149231
663.916	0.0148213
663.994	0.0147994
664.072	0.0148373
664.150	0.0148950
664.228	0.0149070
664.307	0.0148846
664.385	0.0148168
664.463	0.0148262
664.541	0.0148873
664.619	0.0148088
664.697	0.0147472
664.775	0.0148212
664.853	0.0149004
664.932	0.0148772
665.010	0.0148500
665.088	0.0148621
665.166	0.0147215
665.244	0.0148620
665.322	0.0149184
665.400	0.0147974
665.478	0.0148196
665.557	0.0148685
665.635	0.0147822
665.713	0.0146931
665.791	0.0148729
665.869	0.0148170
665.947	0.0146976
666.025	0.0148373
666.103	0.0148037
666.182	0.0147804
666.260	0.0147856
666.338	0.0148354
666.416	0.0147260
666.494	0.0149274
666.572	0.0148956
666.650	0.0147485
666.728	0.0149081
666.807	0.0149754
666.885	0.0148734
666.963	0.0149085
667.041	0.0149596
667.119	0.0147938
667.197	0.0148517
667.275	0.0148390
667.353	0.0148003
667.432	0.0147816
667.510	0.0148000
667.588	0.0149215
667.666	0.0148032
667.744	0.0148081
667.822	0.0147195
667.900	0.0148443
667.978	0.0147857
668.057	0.0147620
668.135	0.0147623
668.213	0.0147943
668.291	0.0147321
668.369	0.0148651
668.447	0.0146780
668.525	0.0147440
668.603	0.0149318
668.682	0.0148666
668.760	0.0148035
668.838	0.0148109
668.916	0.0147953
668.994	0.0147319
669.072	0.0150199
669.150	0.0150631
669.228	0.0149762
669.307	0.0149103
669.385	0.0148360
669.463	0.0149917
669.541	0.0149440
669.619	0.0147366
669.697	0.0148233
669.775	0.0148306
669.853	0.0147131
669.932	0.0146503
670.010	0.0145850
670.088	0.0146745
670.166	0.0145548
670.244	0.0143623
670.322	0.0145345
670.400	0.0145092
670.478	0.0144589
670.557	0.0146383
670.635	0.0146239
670.713	0.0147015
670.791	0.0147370
670.869	0.0148320
670.947	0.0149984
671.025	0.0150243
671.103	0.0151132
671.182	0.0150439
671.260	0.0150894
671.338	0.0150515
671.416	0.0150761
671.494	0.0150246
671.572	0.0148381
671.650	0.0147403
671.728	0.0146018
671.807	0.0143713
671.885	0.0143368
671.963	0.0141903
672.041	0.0139519
672.119	0.0139255
672.197	0.0137472
672.275	0.0137740
672.353	0.0138736
672.432	0.0138484
672.510	0.0140469
672.588	0.0141744
672.666	0.0144276
672.744	0.0146291
672.822	0.0146883
672.900	0.0151803
672.978	0.0153375
673.057	0.0156158
673.135	0.0158694
673.213	0.0160465
673.291	0.0159269
673.369	0.0160055
673.447	0.0160642
673.525	0.0159844
673.603	0.0158630
673.682	0.0158442
673.760	0.0156254
673.838	0.0154321
673.916	0.0151105
673.994	0.0149319
674.072	0.0146379
674.150	0.0143095
674.228	0.0142104
674.307	0.0139404
674.385	0.0137638
674.463	0.0136409
674.541	0.0135507
674.619	0.0135101
674.697	0.0135086
674.775	0.0134962
674.853	0.0135866
674.932	0.0136966
675.010	0.0137492
675.088	0.0138028
675.166	0.0141154
675.244	0.0143870
675.322	0.0146958
675.400	0.0148443
675.478	0.0150639
675.557	0.0153796
675.635	0.0154958
675.713	0.0156062
675.791	0.0159090
675.869	0.0160632
675.947	0.0162748
676.025	0.0164034
676.103	0.0165279
676.182	0.0164249
676.260	0.0166180
676.338	0.0165416
676.416	0.0163118
676.494	0.0159767
676.572	0.0158488
676.650	0.0155795
676.728	0.0152459
676.807	0.0149722
676.885	0.0147141
676.963	0.0145897
677.041	0.0141377
677.119	0.0139342
677.197	0.0139954
677.275	0.0138009
677.353	0.0136992
677.432	0.0138197
677.510	0.0137582
677.588	0.0139130
677.666	0.0139046
677.744	0.0140978
677.822	0.0142757
677.900	0.0143661
677.978	0.0145701
678.057	0.0147739
678.135	0.0148621
678.213	0.0150880
678.291	0.0149593
678.369	0.0149728
678.447	0.0151331
678.525	0.0150505
678.603	0.0148431
678.682	0.0149857
678.760	0.0149895
678.838	0.0147529
678.916	0.0148229
678.994	0.0147498
679.072	0.0147909
679.150	0.0146304
679.228	0.0144971
679.307	0.0144390
679.385	0.0145703
679.463	0.0145191
679.541	0.0144908
679.619	0.0145274
679.697	0.0146407
679.775	0.0147680
679.853	0.0148154
679.932	0.0151116
680.010	0.0152387
680.088	0.0156493
680.166	0.0158154
680.244	0.0159583
680.322	0.0162069
680.400	0.0161639
680.478	0.0163111
680.557	0.0164557
680.635	0.0166599
680.713	0.0164791
680.791	0.0165162
680.869	0.0163113
680.947	0.0162752
681.025	0.0162486
681.103	0.0160912
681.182	0.0158207
681.260	0.0156834
681.338	0.0156348
681.416	0.0151923
681.494	0.0149632
681.572	0.0147881
681.650	0.0145412
681.728	0.0141754
681.807	0.0138157
681.885	0.0136089
681.963	0.0129853
682.041	0.0125589
682.119	0.0122944
682.197	0.0119233
682.275	0.0115680
682.353	0.0112872
682.432	0.0109228
682.510	0.0108393
682.588	0.0110352
682.666	0.0112120
682.744	0.0114701
682.822	0.0120027
682.900	0.0126360
682.978	0.0132363
683.057	0.0139047
683.135	0.0148095
683.213	0.0153982
683.291	0.0162165
683.369	0.0169973
683.447	0.0174584
683.525	0.0181340
683.603	0.0185479
683.682	0.0186944
683.760	0.0190154
683.838	0.0191374
683.916	0.0190104
683.994	0.0189783
684.072	0.0189104
684.150	0.0186760
684.228	0.0183876
684.307	0.0181647
684.385	0.0178987
684.463	0.0176435
684.541	0.0173329
684.619	0.0167173
684.697	0.0162449
684.775	0.0156798
684.853	0.0151550
684.932	0.0143886
685.010	0.0137935
685.088	0.0131743
685.166	0.0125281
685.244	0.0119874
685.322	0.0117020
685.400	0.0114675
685.478	0.0110930
685.557	0.0111018
685.635	0.0110759
685.713	0.0111037
685.791	0.0111414
685.869	0.0113203
685.947	0.0116455
686.025	0.0120255
686.103	0.0121579
686.182	0.0123339
686.260	0.0128443
686.338	0.0133733
686.416	0.0136506
686.494	0.0140118
686.572	0.0143232
686.650	0.0146230
686.728	0.0149796
686.807	0.0154110
686.885	0.0155251
686.963	0.0158128
687.041	0.0160720
687.119	0.0163801
687.197	0.0163921
687.275	0.0164153
687.353	0.0164869
687.432	0.0163094
687.510	0.0162936
687.588	0.0160964
687.666	0.0160761
687.744	0.0160139
687.822	0.0159467
687.900	0.0158334
687.978	0.0158549
688.057	0.0160316
688.135	0.0160343
688.213	0.0162265
688.291	0.0164574
688.369	0.0165514
688.447	0.0167977
688.525	0.0171146
688.603	0.0172491
688.682	0.0173170
688.760	0.0171947
688.838	0.0170974
688.916	0.0170179
688.994	0.0164630
689.072	0.0164430
689.150	0.0159822
689.228	0.0153760
689.307	0.0147758
689.385	0.0140926
689.463	0.0134592
689.541	0.0128527
689.619	0.0123309
689.697	0.0117701
689.775	0.0113857
689.853	0.0109689
689.932	0.0108784
690.010	0.0107165
690.088	0.0108952
690.166	0.0110531
690.244	0.0111922
690.322	0.0115271
690.400	0.0119830
690.478	0.0124316
690.557	0.0128474
690.635	0.0132329
690.713	0.0136028
690.791	0.0142097
690.869	0.0145995
690.947	0.0150422
691.025	0.0154253
691.103	0.0160648
691.182	0.0162160
691.260	0.0166531
691.338	0.0169649
691.416	0.0171847
691.494	0.0172923
691.572	0.0174819
691.650	0.0176230
691.728	0.0175577
691.807	0.0174412
691.885	0.0172163
691.963	0.0168936
692.041	0.0165896
692.119	0.0162650
692.197	0.0159756
692.275	0.0155090
692.353	0.0150974
692.432	0.0147128
692.510	0.0142921
692.588	0.0139248
692.666	0.0137717
692.744	0.0133994
692.822	0.0132445
692.900	0.0132816
692.978	0.0128992
693.057	0.0130655
693.135	0.0130624
693.213	0.0132554
693.291	0.0134201
693.369	0.0135768
693.447	0.0138065
693.525	0.0140551
693.603	0.0144367
693.682	0.0145997
693.760	0.0148373
693.838	0.0151248
693.916	0.0153305
693.994	0.0155869
694.072	0.0158307
694.150	0.0158708
694.228	0.0159499
694.307	0.0159153
694.385	0.0159361
694.463	0.0158707
694.541	0.0159258
694.619	0.0158425
694.697	0.0157227
694.775	0.0156220
694.853	0.0154160
694.932	0.0153430
695.010	0.0154131
695.088	0.0150985
695.166	0.0149493
695.244	0.0149393
695.322	0.0147288
695.400	0.0146514
695.478	0.0146619
695.557	0.0143316
695.635	0.0142918
695.713	0.0141574
695.791	0.0141772
695.869	0.0140273
695.947	0.0139362
696.025	0.0140092
696.103	0.0140420
696.182	0.0139105
696.260	0.0140813
696.338	0.0142056
696.416	0.0141994
696.494	0.0142266
696.572	0.0142607
696.650	0.0142214
696.728	0.0141016
696.807	0.0140315
696.885	0.0140258
696.963	0.0138997
697.041	0.0138601
697.119	0.0136233
697.197	0.0135321
697.275	0.0133810
697.353	0.0133260
697.432	0.0131455
697.510	0.0132196
697.588	0.0132055
697.666	0.0131538
697.744	0.0134020
697.822	0.0135386
697.900	0.0139651
697.978	0.0143922
698.057	0.0147502
698.135	0.0152265
698.213	0.0156921
698.291	0.0160945
698.369	0.0164575
698.447	0.0169354
698.525	0.0173682
698.603	0.0177570
698.682	0.0178445
698.760	0.0179778
698.838	0.0180952
698.916	0.0182117
698.994	0.0181963
699.072	0.0181519
699.150	0.0181335
699.228	0.0178671
699.307	0.0177863
699.385	0.0175211
699.463	0.0172579
699.541	0.0168508
699.619	0.0166715
699.697	0.0160780
699.775	0.0155204
699.853	0.0150919
699.932	0.0145496
700.010	0.0142131
700.088	0.0136602
700.166	0.0133109
700.244	0.0129742
700.322	0.0125627
700.400	0.0123543
700.478	0.0121265
700.557	0.0120530
700.635	0.0119501
700.713	0.0119244
700.791	0.0120419
700.869	0.0123314
700.947	0.0124027
701.025	0.0126015
701.103	0.0127216
701.182	0.0129255
701.260	0.0130968
701.338	0.0132765
701.416	0.0135572
701.494	0.0136159
701.572	0.0137666
701.650	0.0138921
701.728	0.0140881
701.807	0.0142577
701.885	0.0143930
701.963	0.0144991
702.041	0.0147051
702.119	0.0149651
702.197	0.0150360
702.275	0.0150000
702.353	0.0150976
702.432	0.0153611
702.510	0.0154429
702.588	0.0156187
702.666	0.0155215
702.744	0.0155227
702.822	0.0156323
702.900	0.0157123
702.978	0.0157960
703.057	0.0157307
703.135	0.0156680
703.213	0.0156348
703.291	0.0155847
703.369	0.0157241
703.447	0.0156549
703.525	0.0159315
703.603	0.0158289
703.682	0.0160007
703.760	0.0161359
703.838	0.0163239
703.916	0.0164458
703.994	0.0164977
704.072	0.0165426
704.150	0.0166581
704.228	0.0165348
704.307	0.0164384
704.385	0.0164556
704.463	0.0163284
704.541	0.0160895
704.619	0.0159700
704.697	0.0158376
704.775	0.0157573
704.853	0.0155212
704.932	0.0153720
705.010	0.0152876
705.088	0.0152190
705.166	0.0151883
705.244	0.0150417
705.322	0.0150452
705.400	0.0150529
705.478	0.0149467
705.557	0.0149053
705.635	0.0146095
705.713	0.0146695
705.791	0.0143964
705.869	0.0140510
705.947	0.0138792
706.025	0.0137157
706.103	0.0133913
706.182	0.0131026
706.260	0.0128207
706.338	0.0126220
706.416	0.0125084
706.494	0.0124422
706.572	0.0121601
706.650	0.0120678
706.728	0.0121854
706.807	0.0122745
706.885	0.0124903
706.963	0.0126074
707.041	0.0127953
707.119	0.0130941
707.197	0.0135465
707.275	0.0138361
707.353	0.0141210
707.432	0.0143670
707.510	0.0146959
707.588	0.0150626
707.666	0.0152743
707.744	0.0155847
707.822	0.0157959
707.900	0.0159268
707.978	0.0161164
708.057	0.0164381
708.135	0.0163052
708.213	0.0165068
708.291	0.0164363
708.369	0.0165033
708.447	0.0166755
708.525	0.0166344
708.603	0.0165389
708.682	0.0166165
708.760	0.0166237
708.838	0.0165579
708.916	0.0165031
708.994	0.0165359
709.072	0.0163869
709.150	0.0163123
709.228	0.0161034
709.307	0.0159293
709.385	0.0156879
709.463	0.0157418
709.541	0.0154467
709.619	0.0150128
709.697	0.0149971
709.775	0.0148096
709.853	0.0147463
709.932	0.0146850
710.010	0.0146020
710.088	0.0145423
710.166	0.0146358
710.244	0.0148421
710.322	0.0148735
710.400	0.0150112
710.478	0.0151913
710.557	0.0152689
710.635	0.0152701
710.713	0.0152818
710.791	0.0152046
710.869	0.0151739
710.947	0.0151864
711.025	0.0150497
711.103	0.0146428
711.182	0.0144270
711.260	0.0144919
711.338	0.0141398
711.416	0.0140905
711.494	0.0139780
711.572	0.0137894
711.650	0.0137526
711.728	0.0135851
711.807	0.0134848
711.885	0.0134870
711.963	0.0135429
712.041	0.0134621
712.119	0.0133692
712.197	0.0133668
712.275	0.0134442
712.353	0.0134844
712.432	0.0135598
712.510	0.0135606
712.588	0.0135938
712.666	0.0136893
712.744	0.0138552
712.822	0.0138644
712.900	0.0140705
712.978	0.0140582
713.057	0.0142332
713.135	0.0144326
713.213	0.0146353
713.291	0.0146950
713.369	0.0145733
713.447	0.0147378
713.525	0.0147842
713.603	0.0148132
713.682	0.0147765
713.760	0.0147894
713.838	0.0148141
713.916	0.0148163
713.994	0.0149156
714.072	0.0150250
714.150	0.0151669
714.228	0.0153037
714.307	0.0154657
714.385	0.0156947
714.463	0.0157096
714.541	0.0159485
714.619	0.0163574
714.697	0.0162282
714.775	0.0164338
714.853	0.0162719
714.932	0.0163541
715.010	0.0161192
715.088	0.0161009
715.166	0.0159288
715.244	0.0156152
715.322	0.0153267
715.400	0.0153729
715.478	0.0153322
715.557	0.0153316
715.635	0.0151583
715.713	0.0151684
715.791	0.0151282
715.869	0.0152133
715.947	0.0153018
716.025	0.0154205
716.103	0.0152755
716.182	0.0153277
716.260	0.0154190
716.338	0.0152917
716.416	0.0151460
716.494	0.0149751
716.572	0.0148450
716.650	0.0147221
716.728	0.0144768
716.807	0.0144014
716.885	0.0141310
716.963	0.0140733
717.041	0.0139337
717.119	0.0137878
717.197	0.0136259
717.275	0.0136996
717.353	0.0135796
717.432	0.0136849
717.510	0.0136305
717.588	0.0136611
717.666	0.0136102
717.744	0.0136454
717.822	0.0137011
717.900	0.0137903
717.978	0.0138054
718.057	0.0138016
718.135	0.0138934
718.213	0.0141846
718.291	0.0140610
718.369	0.0143127
718.447	0.0144472
718.525	0.0144603
718.603	0.0144204
718.682	0.0146205
718.760	0.0147131
718.838	0.0148630
718.916	0.0149587
718.994	0.0150122
719.072	0.0151290
719.150	0.0150131
719.228	0.0151088
719.307	0.0150900
719.385	0.0152230
719.463	0.0152596
719.541	0.0153056
719.619	0.0153133
719.697	0.0154413
719.775	0.0155301
719.853	0.0155393
719.932	0.0154657
720.010	0.0154790
720.088	0.0155271
720.166	0.0155788
720.244	0.0156554
720.322	0.0155383
720.400	0.0154454
720.478	0.0154058
720.557	0.0154139
720.635	0.0152717
720.713	0.0152065
720.791	0.0150406
720.869	0.0149192
720.947	0.0148753
721.025	0.0146630
721.103	0.0145441
721.182	0.0145144
721.260	0.0146732
721.338	0.0146539
721.416	0.0145241
721.494	0.0146658
721.572	0.0147070
721.650	0.0147326
721.728	0.0148047
721.807	0.0147193
721.885	0.0149900
721.963	0.0150242
722.041	0.0150003
722.119	0.0150994
722.197	0.0151897
722.275	0.0151824
722.353	0.0153979
722.432	0.0153277
722.510	0.0152718
722.588	0.0153353
722.666	0.0152946
722.744	0.0152930
722.822	0.0152054
722.900	0.0152928
722.978	0.0149379
723.057	0.0148721
723.135	0.0149235
723.213	0.0148190
723.291	0.0146809
723.369	0.0146058
723.447	0.0145696
723.525	0.0146227
723.603	0.0145776
723.682	0.0145435
723.760	0.0145961
723.838	0.0146382
723.916	0.0146304
723.994	0.0146757
724.072	0.0147998
724.150	0.0151184
724.228	0.0148814
724.307	0.0150287
724.385	0.0150209
724.463	0.0149753
724.541	0.0149947
724.619	0.0148825
724.697	0.0148716
724.775	0.0146762
724.853	0.0147701
724.932	0.0145557
725.010	0.0144195
725.088	0.0145727
725.166	0.0143157
725.244	0.0143409
725.322	0.0143687
725.400	0.0142508
725.478	0.0143705
725.557	0.0142889
725.635	0.0143939
725.713	0.0146449
725.791	0.0145235
725.869	0.0146420
725.947	0.0147446
726.025	0.0148157
726.103	0.0150302
726.182	0.0150204
726.260	0.0150974
726.338	0.0153000
726.416	0.0154301
726.494	0.0155317
726.572	0.0153796
726.650	0.0153207
726.728	0.0153571
726.807	0.0154455
726.885	0.0154305
726.963	0.0152749
727.041	0.0150327
727.119	0.0150262
727.197	0.0149697
727.275	0.0147166
727.353	0.0147086
727.432	0.0145678
727.510	0.0142950
727.588	0.0143610
727.666	0.0144390
727.744	0.0142556
727.822	0.0143631
727.900	0.0144104
727.978	0.0145254
728.057	0.0145778
728.135	0.0146058
728.213	0.0145895
728.291	0.0148196
728.369	0.0146410
728.447	0.0148156
728.525	0.0148259
728.603	0.0149977
728.682	0.0148003
728.760	0.0150136
728.838	0.0148409
728.916	0.0149053
728.994	0.0148737
729.072	0.0150240
729.150	0.0149886
729.228	0.0151653
729.307	0.0152803
729.385	0.0153091
729.463	0.0156077
729.541	0.0156723
729.619	0.0155739
729.697	0.0157365
729.775	0.0157272
729.853	0.0158346
729.932	0.0160596
730.010	0.0160313
730.088	0.0158836
730.166	0.0158400
730.244	0.0157442
730.322	0.0157641
730.400	0.0157748
730.478	0.0156061
730.557	0.0155222
730.635	0.0154651
730.713	0.0153170
730.791	0.0151443
730.869	0.0147978
730.947	0.0149599
731.025	0.0148973
731.103	0.0145841
731.182	0.0145676
731.260	0.0142930
731.338	0.0143137
731.416	0.0141514
731.494	0.0139088
731.572	0.0138923
731.650	0.0134822
731.728	0.0134866
731.807	0.0133673
731.885	0.0133936
731.963	0.0132721
732.041	0.0132046
732.119	0.0133029
732.197	0.0133410
732.275	0.0134135
732.353	0.0133419
732.432	0.0135255
732.510	0.0135748
732.588	0.0139366
732.666	0.0141324
732.744	0.0141927
732.822	0.0145703
732.900	0.0145206
732.978	0.0147337
733.057	0.0149024
733.135	0.0149705
733.213	0.0151301
733.291	0.0152180
733.369	0.0151700
733.447	0.0153513
733.525	0.0152712
733.603	0.0152265
733.682	0.0151799
733.760	0.0151309
733.838	0.0151579
733.916	0.0152670
733.994	0.0152380
734.072	0.0151286
734.150	0.0151748
734.228	0.0152685
734.307	0.0151861
734.385	0.0153411
734.463	0.0154194
734.541	0.0152791
734.619	0.0154243
734.697	0.0155775
734.775	0.0156010
734.853	0.0157477
734.932	0.0156903
735.010	0.0155072
735.088	0.0155740
735.166	0.0155950
735.244	0.0155224
735.322	0.0154471
735.400	0.0153313
735.478	0.0153236
735.557	0.0153459
735.635	0.0152254
735.713	0.0152398
