05/14/2022	19:25:15	Ver.	4.1	UNKNOWN
Optical Delay	650.009681	Delta X		0.078125	Sweeps	1	Scan Rate	0/0
Coordinates	Axis 1	NaN	Axis 2	NaN	Axis 3	NaN	Axis 4	NaN	Axis 5	NaN	Axis 6	0.000000
TX Power	0.000000	RX Power	0.000000

650.010	0.0144228
650.088	0.0142315
650.166	0.0144134
650.244	0.0146140
650.322	0.0144086
650.400	0.0144857
650.478	0.0144869
650.557	0.0144118
650.635	0.0143186
650.713	0.0145392
650.791	0.0144071
650.869	0.0144317
650.947	0.0143510
651.025	0.0143543
651.103	0.0144016
651.182	0.0145167
651.260	0.0144991
651.338	0.0145316
651.416	0.0144652
651.494	0.0144329
651.572	0.0142867
651.650	0.0144309
651.728	0.0143636
651.807	0.0144222
651.885	0.0144461
651.963	0.0144518
652.041	0.0143684
652.119	0.0145244
652.197	0.0144611
652.275	0.0144426
652.353	0.0144534
652.432	0.0143348
652.510	0.0143809
652.588	0.0143942
652.666	0.0144842
652.744	0.0143758
652.822	0.0143755
652.900	0.0142818
652.978	0.0143967
653.057	0.0143646
653.135	0.0144818
653.213	0.0145856
653.291	0.0144946
653.369	0.0143836
653.447	0.0145590
653.525	0.0145242
653.603	0.0145100
653.682	0.0145296
653.760	0.0145605
653.838	0.0144347
653.916	0.0144221
653.994	0.0144885
654.072	0.0145416
654.150	0.0146317
654.228	0.0145340
654.307	0.0144511
654.385	0.0145663
654.463	0.0144172
654.541	0.0144032
654.619	0.0144420
654.697	0.0145597
654.775	0.0143324
654.853	0.0144672
654.932	0.0145412
655.010	0.0144542
655.088	0.0145454
655.166	0.0144650
655.244	0.0144417
655.322	0.0146091
655.400	0.0144727
655.478	0.0145569
655.557	0.0144920
655.635	0.0145026
655.713	0.0145142
655.791	0.0144205
655.869	0.0145412
655.947	0.0144757
656.025	0.0144366
656.103	0.0143948
656.182	0.0144736
656.260	0.0144083
656.338	0.0145149
656.416	0.0143737
656.494	0.0146036
656.572	0.0144423
656.650	0.0144917
656.728	0.0144507
656.807	0.0145001
656.885	0.0144997
656.963	0.0143407
657.041	0.0145268
657.119	0.0144410
657.197	0.0144240
657.275	0.0145175
657.353	0.0145679
657.432	0.0144577
657.510	0.0143822
657.588	0.0144405
657.666	0.0145200
657.744	0.0143784
657.822	0.0145280
657.900	0.0145449
657.978	0.0146056
658.057	0.0145286
658.135	0.0144408
658.213	0.0144109
658.291	0.0146918
658.369	0.0145276
658.447	0.0145313
658.525	0.0145277
658.603	0.0146921
658.682	0.0146485
658.760	0.0144716
658.838	0.0144573
658.916	0.0145749
658.994	0.0146511
659.072	0.0143651
659.150	0.0144034
659.228	0.0145281
659.307	0.0144051
659.385	0.0144642
659.463	0.0146075
659.541	0.0145308
659.619	0.0143503
659.697	0.0144113
659.775	0.0145302
659.853	0.0145630
659.932	0.0144358
660.010	0.0145174
660.088	0.0144585
660.166	0.0142960
660.244	0.0144103
660.322	0.0143882
660.400	0.0146548
660.478	0.0145787
660.557	0.0143948
660.635	0.0144478
660.713	0.0145292
660.791	0.0144597
660.869	0.0144750
660.947	0.0145313
661.025	0.0144746
661.103	0.0144984
661.182	0.0144888
661.260	0.0144759
661.338	0.0145689
661.416	0.0145242
661.494	0.0144331
661.572	0.0145039
661.650	0.0145308
661.728	0.0145104
661.807	0.0146420
661.885	0.0145631
661.963	0.0144994
662.041	0.0145770
662.119	0.0144561
662.197	0.0144453
662.275	0.0143383
662.353	0.0145587
662.432	0.0145017
662.510	0.0145370
662.588	0.0146332
662.666	0.0144376
662.744	0.0144547
662.822	0.0145811
662.900	0.0146684
662.978	0.0144987
663.057	0.0144956
663.135	0.0144112
663.213	0.0144444
663.291	0.0145881
663.369	0.0144765
663.447	0.0145073
663.525	0.0145934
663.603	0.0145129
663.682	0.0144366
663.760	0.0144419
663.838	0.0144537
663.916	0.0144797
663.994	0.0145148
664.072	0.0144379
664.150	0.0144276
664.228	0.0144122
664.307	0.0144302
664.385	0.0145258
664.463	0.0144447
664.541	0.0144921
664.619	0.0144748
664.697	0.0143468
664.775	0.0144652
664.853	0.0143931
664.932	0.0144249
665.010	0.0144217
665.088	0.0144235
665.166	0.0144392
665.244	0.0144544
665.322	0.0144803
665.400	0.0143642
665.478	0.0143245
665.557	0.0142757
665.635	0.0143295
665.713	0.0144030
665.791	0.0144012
665.869	0.0143858
665.947	0.0143253
666.025	0.0144219
666.103	0.0143515
666.182	0.0143744
666.260	0.0143822
666.338	0.0143009
666.416	0.0143616
666.494	0.0144041
666.572	0.0142166
666.650	0.0142960
666.728	0.0143568
666.807	0.0143063
666.885	0.0143069
666.963	0.0143605
667.041	0.0142925
667.119	0.0142700
667.197	0.0142536
667.275	0.0141740
667.353	0.0141863
667.432	0.0143877
667.510	0.0142056
667.588	0.0143030
667.666	0.0141715
667.744	0.0142609
667.822	0.0142672
667.900	0.0142180
667.978	0.0143736
668.057	0.0142489
668.135	0.0142213
668.213	0.0142175
668.291	0.0143183
668.369	0.0142308
668.447	0.0144797
668.525	0.0145572
668.603	0.0146587
668.682	0.0145174
668.760	0.0145145
668.838	0.0144302
668.916	0.0146062
668.994	0.0145966
669.072	0.0144869
669.150	0.0146149
669.228	0.0145030
669.307	0.0144729
669.385	0.0144449
669.463	0.0142786
669.541	0.0142462
669.619	0.0141429
669.697	0.0141110
669.775	0.0141693
669.853	0.0141656
669.932	0.0140648
670.010	0.0141958
670.088	0.0142221
670.166	0.0142421
670.244	0.0142918
670.322	0.0144234
670.400	0.0146154
670.478	0.0147012
670.557	0.0147379
670.635	0.0150138
670.713	0.0149421
670.791	0.0149992
670.869	0.0149381
670.947	0.0149962
671.025	0.0150566
671.103	0.0148262
671.182	0.0148203
671.260	0.0145731
671.338	0.0144573
671.416	0.0143196
671.494	0.0140559
671.572	0.0138329
671.650	0.0137265
671.728	0.0135666
671.807	0.0135113
671.885	0.0135041
671.963	0.0135622
672.041	0.0135996
672.119	0.0137859
672.197	0.0139085
672.275	0.0140923
672.353	0.0141634
672.432	0.0146806
672.510	0.0149542
672.588	0.0154082
672.666	0.0155090
672.744	0.0157028
672.822	0.0159621
672.900	0.0161465
672.978	0.0161929
673.057	0.0160047
673.135	0.0159779
673.213	0.0158950
673.291	0.0156553
673.369	0.0153799
673.447	0.0151530
673.525	0.0147719
673.603	0.0145884
673.682	0.0142323
673.760	0.0138216
673.838	0.0137040
673.916	0.0132254
673.994	0.0131182
674.072	0.0130474
674.150	0.0130063
674.228	0.0127112
674.307	0.0128597
674.385	0.0131255
674.463	0.0131362
674.541	0.0132494
674.619	0.0133560
674.697	0.0135282
674.775	0.0138074
674.853	0.0140158
674.932	0.0142821
675.010	0.0144639
675.088	0.0147532
675.166	0.0150363
675.244	0.0154756
675.322	0.0155965
675.400	0.0157897
675.478	0.0160787
675.557	0.0163508
675.635	0.0164287
675.713	0.0164847
675.791	0.0165849
675.869	0.0164488
675.947	0.0163704
676.025	0.0161684
676.103	0.0158347
676.182	0.0155531
676.260	0.0153913
676.338	0.0150680
676.416	0.0145385
676.494	0.0140887
676.572	0.0137592
676.650	0.0135480
676.728	0.0131216
676.807	0.0130224
676.885	0.0128448
676.963	0.0127486
677.041	0.0128915
677.119	0.0128585
677.197	0.0130820
677.275	0.0133214
677.353	0.0136179
677.432	0.0137686
677.510	0.0140353
677.588	0.0144059
677.666	0.0144557
677.744	0.0146422
677.822	0.0147966
677.900	0.0150240
677.978	0.0150383
678.057	0.0149551
678.135	0.0149899
678.213	0.0149095
678.291	0.0148647
678.369	0.0148795
678.447	0.0148730
678.525	0.0147504
678.603	0.0146683
678.682	0.0145644
678.760	0.0145509
678.838	0.0143547
678.916	0.0141992
678.994	0.0140992
679.072	0.0139742
679.150	0.0141816
679.228	0.0139687
679.307	0.0139095
679.385	0.0139445
679.463	0.0141582
679.541	0.0141924
679.619	0.0143766
679.697	0.0147393
679.775	0.0149124
679.853	0.0151566
679.932	0.0154832
680.010	0.0156562
680.088	0.0157063
680.166	0.0160132
680.244	0.0160149
680.322	0.0158780
680.400	0.0159910
680.478	0.0159595
680.557	0.0157813
680.635	0.0157849
680.713	0.0157008
680.791	0.0156241
680.869	0.0153933
680.947	0.0152508
681.025	0.0151376
681.103	0.0148899
681.182	0.0146609
681.260	0.0143205
681.338	0.0140176
681.416	0.0136195
681.494	0.0134167
681.572	0.0130274
681.650	0.0127204
681.728	0.0120883
681.807	0.0118864
681.885	0.0113877
681.963	0.0110435
682.041	0.0107784
682.119	0.0106122
682.197	0.0106382
682.275	0.0105463
682.353	0.0106725
682.432	0.0109469
682.510	0.0113705
682.588	0.0119851
682.666	0.0126685
682.744	0.0133057
682.822	0.0140345
682.900	0.0147601
682.978	0.0156233
683.057	0.0162736
683.135	0.0170785
683.213	0.0175848
683.291	0.0180499
683.369	0.0184085
683.447	0.0188152
683.525	0.0190715
683.603	0.0190069
683.682	0.0191181
683.760	0.0188864
683.838	0.0187805
683.916	0.0185422
683.994	0.0182055
684.072	0.0177029
684.150	0.0175615
684.228	0.0168299
684.307	0.0161432
684.385	0.0156613
684.463	0.0150105
684.541	0.0142865
684.619	0.0137464
684.697	0.0131708
684.775	0.0125334
684.853	0.0119473
684.932	0.0113223
685.010	0.0110722
685.088	0.0106290
685.166	0.0105013
685.244	0.0103790
685.322	0.0103075
685.400	0.0104742
685.478	0.0104838
685.557	0.0107573
685.635	0.0108067
685.713	0.0111105
685.791	0.0113324
685.869	0.0117171
685.947	0.0119668
686.025	0.0120860
686.103	0.0125643
686.182	0.0128735
686.260	0.0134142
686.338	0.0140952
686.416	0.0144395
686.494	0.0150305
686.572	0.0156127
686.650	0.0159640
686.728	0.0164211
686.807	0.0166466
686.885	0.0169924
686.963	0.0171584
687.041	0.0171050
687.119	0.0170409
687.197	0.0169851
687.275	0.0167278
687.353	0.0165379
687.432	0.0162246
687.510	0.0159248
687.588	0.0155651
687.666	0.0155505
687.744	0.0153222
687.822	0.0152581
687.900	0.0152323
687.978	0.0153687
688.057	0.0154260
688.135	0.0157355
688.213	0.0158212
688.291	0.0160442
688.369	0.0162121
688.447	0.0163171
688.525	0.0164124
688.603	0.0162731
688.682	0.0161214
688.760	0.0159625
688.838	0.0156306
688.916	0.0151543
688.994	0.0147983
689.072	0.0140564
689.150	0.0134847
689.228	0.0128635
689.307	0.0122705
689.385	0.0118098
689.463	0.0113527
689.541	0.0108200
689.619	0.0105389
689.697	0.0102981
689.775	0.0100371
689.853	0.0101845
689.932	0.0102755
690.010	0.0102233
690.088	0.0105409
690.166	0.0108101
690.244	0.0110832
690.322	0.0114019
690.400	0.0119286
690.478	0.0123950
690.557	0.0128396
690.635	0.0135829
690.713	0.0140826
690.791	0.0145313
690.869	0.0152956
690.947	0.0158224
691.025	0.0163609
691.103	0.0170500
691.182	0.0175427
691.260	0.0179809
691.338	0.0183452
691.416	0.0184302
691.494	0.0184924
691.572	0.0185355
691.650	0.0182279
691.728	0.0179762
691.807	0.0176039
691.885	0.0172168
691.963	0.0166164
692.041	0.0162958
692.119	0.0156340
692.197	0.0149872
692.275	0.0143805
692.353	0.0139497
692.432	0.0133892
692.510	0.0131762
692.588	0.0128761
692.666	0.0124655
692.744	0.0123386
692.822	0.0123595
692.900	0.0124215
692.978	0.0123039
693.057	0.0124971
693.135	0.0126351
693.213	0.0128180
693.291	0.0132968
693.369	0.0135580
693.447	0.0137791
693.525	0.0141251
693.603	0.0144288
693.682	0.0146825
693.760	0.0150388
693.838	0.0150511
693.916	0.0152690
693.994	0.0154040
694.072	0.0153067
694.150	0.0154896
694.228	0.0154913
694.307	0.0153420
694.385	0.0153738
694.463	0.0154488
694.541	0.0152596
694.619	0.0151501
694.697	0.0151261
694.775	0.0151389
694.853	0.0149584
694.932	0.0150252
695.010	0.0149048
695.088	0.0146872
695.166	0.0145060
695.244	0.0144212
695.322	0.0142778
695.400	0.0141477
695.478	0.0139011
695.557	0.0137408
695.635	0.0135944
695.713	0.0135176
695.791	0.0133893
695.869	0.0134547
695.947	0.0135496
696.025	0.0136166
696.103	0.0137508
696.182	0.0138775
696.260	0.0140205
696.338	0.0142452
696.416	0.0142143
696.494	0.0142645
696.572	0.0145145
696.650	0.0145940
696.728	0.0146294
696.807	0.0144260
696.885	0.0143014
696.963	0.0141177
697.041	0.0139443
697.119	0.0136565
697.197	0.0131689
697.275	0.0130512
697.353	0.0129942
697.432	0.0126627
697.510	0.0128253
697.588	0.0128147
697.666	0.0128642
697.744	0.0133768
697.822	0.0135200
697.900	0.0140594
697.978	0.0146405
698.057	0.0148231
698.135	0.0153246
698.213	0.0157493
698.291	0.0163029
698.369	0.0167722
698.447	0.0169917
698.525	0.0173032
698.603	0.0174201
698.682	0.0177243
698.760	0.0178427
698.838	0.0176660
698.916	0.0179366
698.994	0.0178922
699.072	0.0179477
699.150	0.0175221
699.228	0.0174648
699.307	0.0171319
699.385	0.0166484
699.463	0.0161565
699.541	0.0157430
699.619	0.0151374
699.697	0.0143618
699.775	0.0138421
699.853	0.0131554
699.932	0.0125971
700.010	0.0121362
700.088	0.0117830
700.166	0.0114510
700.244	0.0113174
700.322	0.0112311
700.400	0.0112093
700.478	0.0114021
700.557	0.0115289
700.635	0.0116414
700.713	0.0119091
700.791	0.0121925
700.869	0.0125473
700.947	0.0127051
701.025	0.0128095
701.103	0.0129239
701.182	0.0131921
701.260	0.0134174
701.338	0.0136343
701.416	0.0136727
701.494	0.0137651
701.572	0.0139349
701.650	0.0139368
701.728	0.0142915
701.807	0.0143627
701.885	0.0143715
701.963	0.0146946
702.041	0.0148086
702.119	0.0150776
702.197	0.0154010
702.275	0.0153078
702.353	0.0155056
702.432	0.0155488
702.510	0.0155688
702.588	0.0156679
702.666	0.0157845
702.744	0.0156883
702.822	0.0157230
702.900	0.0157647
702.978	0.0156406
703.057	0.0157337
703.135	0.0156297
703.213	0.0157832
703.291	0.0158747
703.369	0.0157915
703.447	0.0160587
703.525	0.0160682
703.603	0.0161260
703.682	0.0161396
703.760	0.0163330
703.838	0.0161228
703.916	0.0161901
703.994	0.0163522
704.072	0.0161897
704.150	0.0160947
704.228	0.0160572
704.307	0.0159615
704.385	0.0158776
704.463	0.0156302
704.541	0.0154094
704.619	0.0152220
704.697	0.0151912
704.775	0.0149859
704.853	0.0147359
704.932	0.0145721
705.010	0.0143685
705.088	0.0141586
705.166	0.0140141
705.244	0.0138848
705.322	0.0135452
705.400	0.0133267
705.478	0.0130594
705.557	0.0128947
705.635	0.0126723
705.713	0.0126981
705.791	0.0124255
705.869	0.0121935
705.947	0.0119901
706.025	0.0118152
706.103	0.0117509
706.182	0.0117273
706.260	0.0115656
706.338	0.0117889
706.416	0.0118230
706.494	0.0118246
706.572	0.0120209
706.650	0.0122034
706.728	0.0123259
706.807	0.0127745
706.885	0.0129807
706.963	0.0132262
707.041	0.0135570
707.119	0.0139859
707.197	0.0142455
707.275	0.0146741
707.353	0.0149213
707.432	0.0150770
707.510	0.0151448
707.588	0.0153310
707.666	0.0155070
707.744	0.0156851
707.822	0.0156882
707.900	0.0157377
707.978	0.0157316
708.057	0.0157712
708.135	0.0158020
708.213	0.0158209
708.291	0.0159059
708.369	0.0161586
708.447	0.0161108
708.525	0.0162226
708.603	0.0163665
708.682	0.0164789
708.760	0.0165815
708.838	0.0165919
708.916	0.0164583
708.994	0.0163625
709.072	0.0162444
709.150	0.0161423
709.228	0.0158941
709.307	0.0157052
709.385	0.0154422
709.463	0.0151376
709.541	0.0148718
709.619	0.0145985
709.697	0.0143295
709.775	0.0142302
709.853	0.0137263
709.932	0.0136536
710.010	0.0136169
710.088	0.0135727
710.166	0.0135493
710.244	0.0133830
710.322	0.0135281
710.400	0.0136566
710.478	0.0136536
710.557	0.0136344
710.635	0.0136482
710.713	0.0138255
710.791	0.0137240
710.869	0.0136700
710.947	0.0135966
711.025	0.0135021
711.103	0.0132839
711.182	0.0132135
711.260	0.0129958
711.338	0.0129080
711.416	0.0128299
711.494	0.0129156
711.572	0.0128281
711.650	0.0130349
711.728	0.0130762
711.807	0.0133235
711.885	0.0134919
711.963	0.0136896
712.041	0.0138727
712.119	0.0140448
712.197	0.0141837
712.275	0.0143008
712.353	0.0143031
712.432	0.0142248
712.510	0.0144915
712.588	0.0145070
712.666	0.0144779
712.744	0.0145634
712.822	0.0144456
712.900	0.0143768
712.978	0.0144067
713.057	0.0142874
713.135	0.0142355
713.213	0.0143085
713.291	0.0142613
713.369	0.0142489
713.447	0.0140671
713.525	0.0142122
713.603	0.0144754
713.682	0.0144514
713.760	0.0146350
713.838	0.0146876
713.916	0.0146761
713.994	0.0148724
714.072	0.0150052
714.150	0.0150713
714.228	0.0154044
714.307	0.0155848
714.385	0.0155602
714.463	0.0156157
714.541	0.0156741
714.619	0.0159354
714.697	0.0157484
714.775	0.0158073
714.853	0.0156641
714.932	0.0155727
715.010	0.0154220
715.088	0.0154088
715.166	0.0153537
715.244	0.0153294
715.322	0.0150814
715.400	0.0151077
715.478	0.0151842
715.557	0.0150778
715.635	0.0150317
715.713	0.0150191
715.791	0.0150269
715.869	0.0150331
715.947	0.0149640
716.025	0.0150057
716.103	0.0149165
716.182	0.0148304
716.260	0.0147698
716.338	0.0145912
716.416	0.0144157
716.494	0.0143277
716.572	0.0142042
716.650	0.0139893
716.728	0.0137222
716.807	0.0136277
716.885	0.0135388
716.963	0.0134980
717.041	0.0134068
717.119	0.0132304
717.197	0.0132255
717.275	0.0132604
717.353	0.0132825
717.432	0.0131464
717.510	0.0132716
717.588	0.0132861
717.666	0.0132338
717.744	0.0133819
717.822	0.0134969
717.900	0.0135789
717.978	0.0135047
718.057	0.0137106
718.135	0.0137305
718.213	0.0139131
718.291	0.0138580
718.369	0.0138847
718.447	0.0140801
718.525	0.0142215
718.603	0.0142593
718.682	0.0143116
718.760	0.0144098
718.838	0.0146106
718.916	0.0145763
718.994	0.0146606
719.072	0.0148167
719.150	0.0149834
719.228	0.0150898
719.307	0.0153307
719.385	0.0155220
719.463	0.0156211
719.541	0.0157238
719.619	0.0158637
719.697	0.0160702
719.775	0.0157624
719.853	0.0159602
719.932	0.0158344
720.010	0.0156799
720.088	0.0156150
720.166	0.0155065
720.244	0.0154893
720.322	0.0150695
720.400	0.0149416
720.478	0.0148097
720.557	0.0146083
720.635	0.0144402
720.713	0.0142894
720.791	0.0141350
720.869	0.0140474
720.947	0.0139433
721.025	0.0141087
721.103	0.0140527
721.182	0.0137762
721.260	0.0138873
721.338	0.0140747
721.416	0.0139490
721.494	0.0140031
721.572	0.0140677
721.650	0.0142787
721.728	0.0142605
721.807	0.0142622
721.885	0.0144865
721.963	0.0145305
722.041	0.0147198
722.119	0.0147601
722.197	0.0145582
722.275	0.0147238
722.353	0.0148743
722.432	0.0148104
722.510	0.0147783
722.588	0.0148258
722.666	0.0147765
722.744	0.0146900
722.822	0.0146514
722.900	0.0146807
722.978	0.0145743
723.057	0.0146350
723.135	0.0145414
723.213	0.0146436
723.291	0.0146168
723.369	0.0144893
723.447	0.0144382
723.525	0.0143530
723.603	0.0145190
723.682	0.0143018
723.760	0.0142709
723.838	0.0143658
723.916	0.0142743
723.994	0.0142836
724.072	0.0141845
724.150	0.0141304
724.228	0.0140376
724.307	0.0140371
724.385	0.0140102
724.463	0.0139551
724.541	0.0139096
724.619	0.0138760
724.697	0.0138727
724.775	0.0138773
724.853	0.0138351
724.932	0.0139043
725.010	0.0139156
725.088	0.0138223
725.166	0.0137951
725.244	0.0137962
725.322	0.0138819
725.400	0.0139619
725.478	0.0141473
725.557	0.0143989
725.635	0.0145264
725.713	0.0145814
725.791	0.0147266
725.869	0.0147109
725.947	0.0148766
726.025	0.0150365
726.103	0.0149992
726.182	0.0151802
726.260	0.0151424
726.338	0.0152364
726.416	0.0151647
726.494	0.0151597
726.572	0.0149979
726.650	0.0149111
726.728	0.0148302
726.807	0.0148622
726.885	0.0147617
726.963	0.0148387
727.041	0.0147430
727.119	0.0146161
727.197	0.0144840
727.275	0.0144426
727.353	0.0145785
727.432	0.0144712
727.510	0.0143598
727.588	0.0143069
727.666	0.0142386
727.744	0.0143919
727.822	0.0144688
727.900	0.0142207
727.978	0.0142227
728.057	0.0142168
728.135	0.0142230
728.213	0.0141138
728.291	0.0141326
728.369	0.0141402
728.447	0.0141750
728.525	0.0140432
728.603	0.0139516
728.682	0.0140453
728.760	0.0140072
728.838	0.0139989
728.916	0.0140585
728.994	0.0141737
729.072	0.0141277
729.150	0.0141753
729.228	0.0143583
729.307	0.0144492
729.385	0.0146301
729.463	0.0147295
729.541	0.0147836
729.619	0.0148152
729.697	0.0151241
729.775	0.0151646
729.853	0.0151560
729.932	0.0152409
730.010	0.0151450
730.088	0.0151867
730.166	0.0151008
730.244	0.0151150
730.322	0.0150159
730.400	0.0149126
730.478	0.0149892
730.557	0.0149006
730.635	0.0146765
730.713	0.0147751
730.791	0.0144852
730.869	0.0143859
730.947	0.0143126
731.025	0.0142344
731.103	0.0141557
731.182	0.0141467
731.260	0.0140583
731.338	0.0139468
731.416	0.0139373
731.494	0.0137755
731.572	0.0138446
731.650	0.0137313
731.728	0.0136222
731.807	0.0136208
731.885	0.0136140
731.963	0.0135198
732.041	0.0135610
732.119	0.0137072
732.197	0.0136102
732.275	0.0136980
732.353	0.0139676
732.432	0.0138788
732.510	0.0139368
732.588	0.0140176
732.666	0.0141376
732.744	0.0142921
732.822	0.0143924
732.900	0.0144154
732.978	0.0142111
733.057	0.0144247
733.135	0.0144823
733.213	0.0143601
733.291	0.0144542
733.369	0.0145680
733.447	0.0143491
733.525	0.0143356
733.603	0.0145020
733.682	0.0146955
733.760	0.0146031
733.838	0.0147792
733.916	0.0148470
733.994	0.0148417
734.072	0.0149480
734.150	0.0149961
734.228	0.0151765
734.307	0.0151394
734.385	0.0150287
734.463	0.0150958
734.541	0.0152374
734.619	0.0152972
734.697	0.0152469
734.775	0.0151196
734.853	0.0151069
734.932	0.0150900
735.010	0.0151068
735.088	0.0151580
735.166	0.0150039
735.244	0.0149621
735.322	0.0149464
735.400	0.0147938
735.478	0.0150128
735.557	0.0149634
735.635	0.0150096
735.713	0.0150175
