05/14/2022	19:26:15	Ver.	4.1	UNKNOWN
Optical Delay	650.009681	Delta X		0.078125	Sweeps	1	Scan Rate	0/0
Coordinates	Axis 1	NaN	Axis 2	NaN	Axis 3	NaN	Axis 4	NaN	Axis 5	NaN	Axis 6	0.000000
TX Power	0.000000	RX Power	0.000000

650.010	0.0148819
650.088	0.0149541
650.166	0.0148669
650.244	0.0148354
650.322	0.0150415
650.400	0.0149261
650.478	0.0148589
650.557	0.0150618
650.635	0.0149918
650.713	0.0149434
650.791	0.0149796
650.869	0.0149986
650.947	0.0148254
651.025	0.0148547
651.103	0.0150489
651.182	0.0151025
651.260	0.0149940
651.338	0.0148393
651.416	0.0148701
651.494	0.0149922
651.572	0.0148673
651.650	0.0149257
651.728	0.0149737
651.807	0.0149863
651.885	0.0148932
651.963	0.0148164
652.041	0.0149714
652.119	0.0150270
652.197	0.0149827
652.275	0.0148743
652.353	0.0148980
652.432	0.0148709
652.510	0.0149290
652.588	0.0148828
652.666	0.0148752
652.744	0.0148804
652.822	0.0147552
652.900	0.0148560
652.978	0.0149676
653.057	0.0150471
653.135	0.0150262
653.213	0.0147182
653.291	0.0148210
653.369	0.0149792
653.447	0.0148369
653.525	0.0150724
653.603	0.0149794
653.682	0.0147490
653.760	0.0149035
653.838	0.0149358
653.916	0.0149592
653.994	0.0148648
654.072	0.0149689
654.150	0.0149940
654.228	0.0150072
654.307	0.0148341
654.385	0.0149269
654.463	0.0149106
654.541	0.0149638
654.619	0.0149217
654.697	0.0148634
654.775	0.0148620
654.853	0.0149020
654.932	0.0148612
655.010	0.0150509
655.088	0.0148396
655.166	0.0147561
655.244	0.0147796
655.322	0.0149517
655.400	0.0149625
655.478	0.0148559
655.557	0.0148510
655.635	0.0148794
655.713	0.0147952
655.791	0.0149741
655.869	0.0149121
655.947	0.0149805
656.025	0.0148338
656.103	0.0147336
656.182	0.0147958
656.260	0.0148619
656.338	0.0147727
656.416	0.0147405
656.494	0.0148762
656.572	0.0146841
656.650	0.0146484
656.728	0.0147276
656.807	0.0147895
656.885	0.0147357
656.963	0.0146744
657.041	0.0147179
657.119	0.0147598
657.197	0.0147190
657.275	0.0147113
657.353	0.0147368
657.432	0.0148277
657.510	0.0148598
657.588	0.0146934
657.666	0.0145731
657.744	0.0148164
657.822	0.0147884
657.900	0.0145921
657.978	0.0147809
658.057	0.0147717
658.135	0.0146343
658.213	0.0147288
658.291	0.0148063
658.369	0.0147985
658.447	0.0146736
658.525	0.0146673
658.603	0.0147864
658.682	0.0148273
658.760	0.0146924
658.838	0.0145768
658.916	0.0146739
658.994	0.0147643
659.072	0.0148058
659.150	0.0146780
659.228	0.0146748
659.307	0.0147431
659.385	0.0147274
659.463	0.0146461
659.541	0.0148602
659.619	0.0147526
659.697	0.0147295
659.775	0.0148697
659.853	0.0148134
659.932	0.0147929
660.010	0.0147906
660.088	0.0148426
660.166	0.0147726
660.244	0.0147510
660.322	0.0149443
660.400	0.0148368
660.478	0.0147777
660.557	0.0149226
660.635	0.0148392
660.713	0.0148071
660.791	0.0148615
660.869	0.0148305
660.947	0.0147820
661.025	0.0148805
661.103	0.0148188
661.182	0.0149036
661.260	0.0148356
661.338	0.0149305
661.416	0.0147786
661.494	0.0147021
661.572	0.0148439
661.650	0.0150471
661.728	0.0148166
661.807	0.0147899
661.885	0.0149712
661.963	0.0148198
662.041	0.0149167
662.119	0.0148674
662.197	0.0148115
662.275	0.0149777
662.353	0.0148909
662.432	0.0148155
662.510	0.0149120
662.588	0.0148038
662.666	0.0150050
662.744	0.0148151
662.822	0.0149863
662.900	0.0149113
662.978	0.0149645
663.057	0.0148788
663.135	0.0149947
663.213	0.0148104
663.291	0.0148737
663.369	0.0149018
663.447	0.0148058
663.525	0.0148927
663.603	0.0147732
663.682	0.0148355
663.760	0.0149326
663.838	0.0148758
663.916	0.0148827
663.994	0.0149009
664.072	0.0149552
664.150	0.0148992
664.228	0.0147942
664.307	0.0148262
664.385	0.0148608
664.463	0.0147587
664.541	0.0148887
664.619	0.0149426
664.697	0.0148670
664.775	0.0149478
664.853	0.0148174
664.932	0.0147943
665.010	0.0149751
665.088	0.0147955
665.166	0.0149148
665.244	0.0149347
665.322	0.0150167
665.400	0.0149290
665.478	0.0149644
665.557	0.0148802
665.635	0.0149163
665.713	0.0149786
665.791	0.0148711
665.869	0.0150164
665.947	0.0148158
666.025	0.0147876
666.103	0.0149010
666.182	0.0147813
666.260	0.0149421
666.338	0.0148965
666.416	0.0149081
666.494	0.0147328
666.572	0.0147913
666.650	0.0148438
666.728	0.0147330
666.807	0.0148449
666.885	0.0148978
666.963	0.0148927
667.041	0.0148716
667.119	0.0150118
667.197	0.0148686
667.275	0.0149462
667.353	0.0148729
667.432	0.0149771
667.510	0.0149836
667.588	0.0149872
667.666	0.0151011
667.744	0.0150780
667.822	0.0149704
667.900	0.0150421
667.978	0.0149378
668.057	0.0148814
668.135	0.0149836
668.213	0.0148251
668.291	0.0148883
668.369	0.0147632
668.447	0.0147272
668.525	0.0145657
668.603	0.0146089
668.682	0.0147091
668.760	0.0147025
668.838	0.0147008
668.916	0.0145927
668.994	0.0148196
669.072	0.0147184
669.150	0.0149068
669.228	0.0150478
669.307	0.0150237
669.385	0.0150477
669.463	0.0152479
669.541	0.0154153
669.619	0.0153966
669.697	0.0153111
669.775	0.0154808
669.853	0.0155552
669.932	0.0153479
670.010	0.0153249
670.088	0.0151518
670.166	0.0149823
670.244	0.0148178
670.322	0.0147658
670.400	0.0146257
670.478	0.0143529
670.557	0.0141878
670.635	0.0141621
670.713	0.0139386
670.791	0.0140505
670.869	0.0139852
670.947	0.0138782
671.025	0.0141272
671.103	0.0142883
671.182	0.0144151
671.260	0.0145709
671.338	0.0149084
671.416	0.0151400
671.494	0.0155604
671.572	0.0157285
671.650	0.0161205
671.728	0.0162279
671.807	0.0163500
671.885	0.0163477
671.963	0.0165485
672.041	0.0166764
672.119	0.0163557
672.197	0.0161376
672.275	0.0159023
672.353	0.0155260
672.432	0.0154331
672.510	0.0150025
672.588	0.0146696
672.666	0.0143456
672.744	0.0140638
672.822	0.0136436
672.900	0.0134184
672.978	0.0132606
673.057	0.0131716
673.135	0.0130891
673.213	0.0128649
673.291	0.0129306
673.369	0.0130385
673.447	0.0133321
673.525	0.0134105
673.603	0.0136175
673.682	0.0139110
673.760	0.0142826
673.838	0.0146399
673.916	0.0149272
673.994	0.0151498
674.072	0.0152974
674.150	0.0157563
674.228	0.0160792
674.307	0.0161008
674.385	0.0163817
674.463	0.0165371
674.541	0.0167229
674.619	0.0166993
674.697	0.0168037
674.775	0.0168163
674.853	0.0167120
674.932	0.0166022
675.010	0.0164622
675.088	0.0161229
675.166	0.0157401
675.244	0.0153588
675.322	0.0150462
675.400	0.0145711
675.478	0.0142025
675.557	0.0138434
675.635	0.0135324
675.713	0.0131364
675.791	0.0129705
675.869	0.0129109
675.947	0.0127808
676.025	0.0126750
676.103	0.0128950
676.182	0.0129044
676.260	0.0130583
676.338	0.0134618
676.416	0.0137547
676.494	0.0139007
676.572	0.0143269
676.650	0.0148227
676.728	0.0150166
676.807	0.0153349
676.885	0.0153932
676.963	0.0156414
677.041	0.0158189
677.119	0.0157339
677.197	0.0157851
677.275	0.0159357
677.353	0.0159801
677.432	0.0158207
677.510	0.0158253
677.588	0.0156433
677.666	0.0155772
677.744	0.0154832
677.822	0.0153177
677.900	0.0150728
677.978	0.0148713
678.057	0.0147060
678.135	0.0145337
678.213	0.0144201
678.291	0.0142796
678.369	0.0140392
678.447	0.0140485
678.525	0.0140776
678.603	0.0138907
678.682	0.0140271
678.760	0.0142727
678.838	0.0142862
678.916	0.0145267
678.994	0.0147733
679.072	0.0150615
679.150	0.0152776
679.228	0.0154662
679.307	0.0156946
679.385	0.0158595
679.463	0.0160773
679.541	0.0161915
679.619	0.0160692
679.697	0.0161660
679.775	0.0161618
679.853	0.0161397
679.932	0.0161242
680.010	0.0159497
680.088	0.0157743
680.166	0.0154024
680.244	0.0152981
680.322	0.0148149
680.400	0.0145017
680.478	0.0140966
680.557	0.0137196
680.635	0.0132783
680.713	0.0130005
680.791	0.0124538
680.869	0.0122059
680.947	0.0120261
681.025	0.0117692
681.103	0.0115835
681.182	0.0116444
681.260	0.0117516
681.338	0.0117932
681.416	0.0120521
681.494	0.0120204
681.572	0.0123953
681.650	0.0127049
681.728	0.0131082
681.807	0.0135458
681.885	0.0141035
681.963	0.0145665
682.041	0.0150716
682.119	0.0156082
682.197	0.0163644
682.275	0.0169978
682.353	0.0174532
682.432	0.0180769
682.510	0.0186469
682.588	0.0190232
682.666	0.0192818
682.744	0.0194918
682.822	0.0196233
682.900	0.0196864
682.978	0.0194135
683.057	0.0190560
683.135	0.0188750
683.213	0.0183843
683.291	0.0178956
683.369	0.0171967
683.447	0.0164383
683.525	0.0155788
683.603	0.0149007
683.682	0.0142274
683.760	0.0134956
683.838	0.0130719
683.916	0.0125137
683.994	0.0119855
684.072	0.0115575
684.150	0.0112236
684.228	0.0112011
684.307	0.0110953
684.385	0.0108697
684.463	0.0110181
684.541	0.0110932
684.619	0.0110618
684.697	0.0112721
684.775	0.0112943
684.853	0.0113007
684.932	0.0113916
685.010	0.0116335
685.088	0.0115464
685.166	0.0118607
685.244	0.0122520
685.322	0.0126539
685.400	0.0131181
685.478	0.0138656
685.557	0.0146310
685.635	0.0150667
685.713	0.0159037
685.791	0.0164794
685.869	0.0171790
685.947	0.0177427
686.025	0.0182043
686.103	0.0186065
686.182	0.0189676
686.260	0.0188968
686.338	0.0190866
686.416	0.0189280
686.494	0.0187814
686.572	0.0184678
686.650	0.0181678
686.728	0.0178722
686.807	0.0174693
686.885	0.0172845
686.963	0.0169286
687.041	0.0165788
687.119	0.0165140
687.197	0.0161745
687.275	0.0159185
687.353	0.0157167
687.432	0.0154181
687.510	0.0152456
687.588	0.0150418
687.666	0.0149364
687.744	0.0145866
687.822	0.0143668
687.900	0.0141093
687.978	0.0140131
688.057	0.0138139
688.135	0.0137900
688.213	0.0136480
688.291	0.0135086
688.369	0.0135040
688.447	0.0134194
688.525	0.0133263
688.603	0.0132837
688.682	0.0132089
688.760	0.0132040
688.838	0.0128925
688.916	0.0126410
688.994	0.0124503
689.072	0.0123231
689.150	0.0121478
689.228	0.0117940
689.307	0.0115735
689.385	0.0114503
689.463	0.0113709
689.541	0.0114565
689.619	0.0114351
689.697	0.0117122
689.775	0.0120364
689.853	0.0124389
689.932	0.0129820
690.010	0.0136047
690.088	0.0144253
690.166	0.0151347
690.244	0.0158528
690.322	0.0168430
690.400	0.0174507
690.478	0.0182384
690.557	0.0187312
690.635	0.0192799
690.713	0.0198962
690.791	0.0200201
690.869	0.0201875
690.947	0.0199975
691.025	0.0199549
691.103	0.0195891
691.182	0.0192839
691.260	0.0186394
691.338	0.0183324
691.416	0.0176848
691.494	0.0171880
691.572	0.0163376
691.650	0.0157796
691.728	0.0153936
691.807	0.0146053
691.885	0.0141781
691.963	0.0137399
692.041	0.0133381
692.119	0.0129073
692.197	0.0125218
692.275	0.0121140
692.353	0.0119492
692.432	0.0116621
692.510	0.0115182
692.588	0.0114573
692.666	0.0114255
692.744	0.0115888
692.822	0.0117887
692.900	0.0121227
692.978	0.0124612
693.057	0.0129494
693.135	0.0135101
693.213	0.0137627
693.291	0.0144176
693.369	0.0150513
693.447	0.0152560
693.525	0.0157677
693.603	0.0161800
693.682	0.0164073
693.760	0.0166167
693.838	0.0167129
693.916	0.0166348
693.994	0.0167591
694.072	0.0169476
694.150	0.0168343
694.228	0.0166771
694.307	0.0165487
694.385	0.0163947
694.463	0.0163602
694.541	0.0161020
694.619	0.0158234
694.697	0.0155602
694.775	0.0153199
694.853	0.0150110
694.932	0.0146421
695.010	0.0144206
695.088	0.0139786
695.166	0.0136822
695.244	0.0136665
695.322	0.0134949
695.400	0.0132722
695.478	0.0133958
695.557	0.0136653
695.635	0.0136934
695.713	0.0137789
695.791	0.0141753
695.869	0.0144315
695.947	0.0145778
696.025	0.0149068
696.103	0.0149734
696.182	0.0150632
696.260	0.0152437
696.338	0.0151078
696.416	0.0151083
696.494	0.0149595
696.572	0.0149741
696.650	0.0148406
696.728	0.0148734
696.807	0.0147742
696.885	0.0146606
696.963	0.0147198
697.041	0.0146798
697.119	0.0148113
697.197	0.0147958
697.275	0.0150004
697.353	0.0150015
697.432	0.0150074
697.510	0.0150772
697.588	0.0153235
697.666	0.0153531
697.744	0.0154613
697.822	0.0156821
697.900	0.0156911
697.978	0.0159621
698.057	0.0160760
698.135	0.0162061
698.213	0.0164584
698.291	0.0166594
698.369	0.0167170
698.447	0.0167747
698.525	0.0167363
698.603	0.0167619
698.682	0.0167500
698.760	0.0166551
698.838	0.0164977
698.916	0.0160517
698.994	0.0157568
699.072	0.0153691
699.150	0.0148387
699.228	0.0144017
699.307	0.0140166
699.385	0.0135329
699.463	0.0131957
699.541	0.0129021
699.619	0.0125891
699.697	0.0123685
699.775	0.0122845
699.853	0.0121860
699.932	0.0120915
700.010	0.0120691
700.088	0.0121027
700.166	0.0121220
700.244	0.0123414
700.322	0.0123772
700.400	0.0123977
700.478	0.0124617
700.557	0.0126220
700.635	0.0127695
700.713	0.0129517
700.791	0.0130931
700.869	0.0133841
700.947	0.0137524
701.025	0.0140249
701.103	0.0144619
701.182	0.0147631
701.260	0.0151274
701.338	0.0155766
701.416	0.0158505
701.494	0.0160543
701.572	0.0163004
701.650	0.0166124
701.728	0.0167552
701.807	0.0166309
701.885	0.0166968
701.963	0.0168639
702.041	0.0168588
702.119	0.0167625
702.197	0.0167390
702.275	0.0165985
702.353	0.0165650
702.432	0.0167065
702.510	0.0166350
702.588	0.0166438
702.666	0.0165820
702.744	0.0165128
702.822	0.0164289
702.900	0.0165646
702.978	0.0164488
703.057	0.0163554
703.135	0.0161498
703.213	0.0159309
703.291	0.0158752
703.369	0.0155937
703.447	0.0154458
703.525	0.0152379
703.603	0.0149791
703.682	0.0148760
703.760	0.0147794
703.838	0.0147600
703.916	0.0145954
703.994	0.0144438
704.072	0.0143850
704.150	0.0142986
704.228	0.0142928
704.307	0.0141895
704.385	0.0142433
704.463	0.0140120
704.541	0.0139713
704.619	0.0137430
704.697	0.0135899
704.775	0.0133868
704.853	0.0132430
704.932	0.0130209
705.010	0.0127251
705.088	0.0125854
705.166	0.0126107
705.244	0.0125558
705.322	0.0124113
705.400	0.0124538
705.478	0.0125288
705.557	0.0125552
705.635	0.0126353
705.713	0.0127661
705.791	0.0130173
705.869	0.0130800
705.947	0.0133855
706.025	0.0136337
706.103	0.0137117
706.182	0.0138699
706.260	0.0142696
706.338	0.0145309
706.416	0.0145557
706.494	0.0149132
706.572	0.0150355
706.650	0.0152853
706.728	0.0155820
706.807	0.0157503
706.885	0.0158527
706.963	0.0162019
707.041	0.0163820
707.119	0.0166724
707.197	0.0166560
707.275	0.0168308
707.353	0.0169136
707.432	0.0171462
707.510	0.0171315
707.588	0.0171765
707.666	0.0171357
707.744	0.0170882
707.822	0.0170549
707.900	0.0171238
707.978	0.0171864
708.057	0.0171967
708.135	0.0170036
708.213	0.0168752
708.291	0.0168562
708.369	0.0168220
708.447	0.0165537
708.525	0.0162991
708.603	0.0162664
708.682	0.0159930
708.760	0.0156590
708.838	0.0153569
708.916	0.0151044
708.994	0.0147466
709.072	0.0146422
709.150	0.0143922
709.228	0.0141898
709.307	0.0140623
709.385	0.0140427
709.463	0.0139128
709.541	0.0139741
709.619	0.0140255
709.697	0.0139539
709.775	0.0138042
709.853	0.0138685
709.932	0.0138264
710.010	0.0136785
710.088	0.0133539
710.166	0.0132320
710.244	0.0130307
710.322	0.0127217
710.400	0.0125621
710.478	0.0123194
710.557	0.0120644
710.635	0.0121674
710.713	0.0119254
710.791	0.0118876
710.869	0.0120277
710.947	0.0121704
711.025	0.0124666
711.103	0.0127978
711.182	0.0131420
711.260	0.0135091
711.338	0.0140431
711.416	0.0144942
711.494	0.0150772
711.572	0.0156068
711.650	0.0159727
711.728	0.0163429
711.807	0.0166596
711.885	0.0167481
711.963	0.0169972
712.041	0.0171915
712.119	0.0169837
712.197	0.0170177
712.275	0.0167178
712.353	0.0166757
712.432	0.0165025
712.510	0.0162796
712.588	0.0161022
712.666	0.0158981
712.744	0.0156812
712.822	0.0157323
712.900	0.0155515
712.978	0.0152972
713.057	0.0152432
713.135	0.0153185
713.213	0.0152599
713.291	0.0150691
713.369	0.0149918
713.447	0.0149097
713.525	0.0149512
713.603	0.0149353
713.682	0.0148004
713.760	0.0145628
713.838	0.0147491
713.916	0.0147110
713.994	0.0147237
714.072	0.0146855
714.150	0.0148631
714.228	0.0149918
714.307	0.0150963
714.385	0.0152287
714.463	0.0153336
714.541	0.0155387
714.619	0.0155478
714.697	0.0156057
714.775	0.0156446
714.853	0.0158109
714.932	0.0159008
715.010	0.0157346
715.088	0.0157446
715.166	0.0155701
715.244	0.0155231
715.322	0.0154115
715.400	0.0153943
715.478	0.0151572
715.557	0.0149596
715.635	0.0146955
715.713	0.0145638
715.791	0.0142566
715.869	0.0139600
715.947	0.0137987
716.025	0.0135870
716.103	0.0134735
716.182	0.0133563
716.260	0.0133204
716.338	0.0131940
716.416	0.0132500
716.494	0.0132697
716.572	0.0132408
716.650	0.0134179
716.728	0.0134416
716.807	0.0136589
716.885	0.0135735
716.963	0.0135798
717.041	0.0136933
717.119	0.0139371
717.197	0.0140009
717.275	0.0141602
717.353	0.0141839
717.432	0.0142966
717.510	0.0144823
717.588	0.0146024
717.666	0.0147019
717.744	0.0148138
717.822	0.0148455
717.900	0.0148441
717.978	0.0149804
718.057	0.0151590
718.135	0.0152521
718.213	0.0153484
718.291	0.0152621
718.369	0.0153082
718.447	0.0155533
718.525	0.0157158
718.603	0.0158706
718.682	0.0158712
718.760	0.0159576
718.838	0.0160285
718.916	0.0162373
718.994	0.0162426
719.072	0.0162276
719.150	0.0162981
719.228	0.0163023
719.307	0.0161996
719.385	0.0161257
719.463	0.0158367
719.541	0.0158765
719.619	0.0158215
719.697	0.0156487
719.775	0.0155340
719.853	0.0153458
719.932	0.0151788
720.010	0.0150117
720.088	0.0148748
720.166	0.0148228
720.244	0.0147921
720.322	0.0146131
720.400	0.0144156
720.478	0.0142487
720.557	0.0142332
720.635	0.0143508
720.713	0.0141899
720.791	0.0141779
720.869	0.0141290
720.947	0.0140577
721.025	0.0142325
721.103	0.0142275
721.182	0.0141749
721.260	0.0143319
721.338	0.0143929
721.416	0.0143623
721.494	0.0144891
721.572	0.0144752
721.650	0.0145107
721.728	0.0146559
721.807	0.0146713
721.885	0.0146675
721.963	0.0147414
722.041	0.0147733
722.119	0.0148845
722.197	0.0148885
722.275	0.0148669
722.353	0.0148280
722.432	0.0148191
722.510	0.0149606
722.588	0.0149315
722.666	0.0149630
722.744	0.0150851
722.822	0.0148498
722.900	0.0148682
722.978	0.0148678
723.057	0.0148323
723.135	0.0147820
723.213	0.0145682
723.291	0.0149926
723.369	0.0148128
723.447	0.0148498
723.525	0.0146883
723.603	0.0146473
723.682	0.0146715
723.760	0.0147381
723.838	0.0145975
723.916	0.0146162
723.994	0.0147504
724.072	0.0147254
724.150	0.0146344
724.228	0.0146450
724.307	0.0146004
724.385	0.0146177
724.463	0.0145309
724.541	0.0147118
724.619	0.0146580
724.697	0.0147774
724.775	0.0148306
724.853	0.0149480
724.932	0.0150289
725.010	0.0150487
725.088	0.0152448
725.166	0.0153648
725.244	0.0154601
725.322	0.0156143
725.400	0.0154767
725.478	0.0155523
725.557	0.0153189
725.635	0.0156037
725.713	0.0155776
725.791	0.0156538
725.869	0.0153538
725.947	0.0154439
726.025	0.0153576
726.103	0.0153820
726.182	0.0154668
726.260	0.0154615
726.338	0.0154025
726.416	0.0151704
726.494	0.0152177
726.572	0.0152998
726.650	0.0152437
726.728	0.0152478
726.807	0.0154092
726.885	0.0153206
726.963	0.0151933
727.041	0.0152654
727.119	0.0153200
727.197	0.0152202
727.275	0.0151777
727.353	0.0151455
727.432	0.0150200
727.510	0.0150221
727.588	0.0149696
727.666	0.0147416
727.744	0.0146357
727.822	0.0146951
727.900	0.0146497
727.978	0.0144207
728.057	0.0142341
728.135	0.0142924
728.213	0.0143980
728.291	0.0143373
728.369	0.0145345
728.447	0.0143578
728.525	0.0143271
728.603	0.0144407
728.682	0.0144241
728.760	0.0145332
728.838	0.0145457
728.916	0.0145694
728.994	0.0145781
729.072	0.0147663
729.150	0.0147980
729.228	0.0147660
729.307	0.0148124
729.385	0.0149677
729.463	0.0149403
729.541	0.0149719
729.619	0.0151151
729.697	0.0150706
729.775	0.0150668
729.853	0.0150714
729.932	0.0152588
730.010	0.0153243
730.088	0.0152157
730.166	0.0150682
730.244	0.0151641
730.322	0.0152068
730.400	0.0152767
730.478	0.0150884
730.557	0.0151355
730.635	0.0150696
730.713	0.0149545
730.791	0.0150883
730.869	0.0150874
730.947	0.0149306
731.025	0.0150330
731.103	0.0150159
731.182	0.0151196
731.260	0.0150704
731.338	0.0151775
731.416	0.0151830
731.494	0.0150690
731.572	0.0150353
731.650	0.0149170
731.728	0.0149022
731.807	0.0150508
731.885	0.0148812
731.963	0.0147959
732.041	0.0148046
732.119	0.0147817
732.197	0.0145889
732.275	0.0146046
732.353	0.0145997
732.432	0.0145689
732.510	0.0145712
732.588	0.0146238
732.666	0.0143580
732.744	0.0144788
732.822	0.0146555
732.900	0.0146558
732.978	0.0145280
733.057	0.0145977
733.135	0.0145389
733.213	0.0144679
733.291	0.0146535
733.369	0.0146234
733.447	0.0147380
733.525	0.0147379
733.603	0.0148038
733.682	0.0148168
733.760	0.0149210
733.838	0.0150810
733.916	0.0149934
733.994	0.0149873
734.072	0.0150922
734.150	0.0150418
734.228	0.0151119
734.307	0.0151703
734.385	0.0150042
734.463	0.0150076
734.541	0.0150420
734.619	0.0151915
734.697	0.0151715
734.775	0.0151828
734.853	0.0149953
734.932	0.0151467
735.010	0.0151840
735.088	0.0152616
735.166	0.0153320
735.244	0.0153899
735.322	0.0155041
735.400	0.0155373
735.478	0.0155422
735.557	0.0154841
735.635	0.0153916
735.713	0.0153125
