05/14/2022	19:26:30	Ver.	4.1	UNKNOWN
Optical Delay	650.009681	Delta X		0.078125	Sweeps	1	Scan Rate	0/0
Coordinates	Axis 1	NaN	Axis 2	NaN	Axis 3	NaN	Axis 4	NaN	Axis 5	NaN	Axis 6	0.000000
TX Power	0.000000	RX Power	0.000000

650.010	0.0145831
650.088	0.0146815
650.166	0.0146529
650.244	0.0145781
650.322	0.0145688
650.400	0.0146426
650.478	0.0145533
650.557	0.0145253
650.635	0.0144978
650.713	0.0144561
650.791	0.0146005
650.869	0.0145683
650.947	0.0145386
651.025	0.0146388
651.103	0.0145638
651.182	0.0144590
651.260	0.0145258
651.338	0.0145686
651.416	0.0144992
651.494	0.0144788
651.572	0.0145570
651.650	0.0142687
651.728	0.0144090
651.807	0.0144151
651.885	0.0144265
651.963	0.0144278
652.041	0.0143797
652.119	0.0144404
652.197	0.0145536
652.275	0.0143861
652.353	0.0144632
652.432	0.0143929
652.510	0.0144009
652.588	0.0144398
652.666	0.0142858
652.744	0.0144891
652.822	0.0144652
652.900	0.0143827
652.978	0.0144275
653.057	0.0144584
653.135	0.0144639
653.213	0.0144486
653.291	0.0145052
653.369	0.0143954
653.447	0.0143523
653.525	0.0144175
653.603	0.0143983
653.682	0.0143445
653.760	0.0145111
653.838	0.0144672
653.916	0.0144531
653.994	0.0145934
654.072	0.0144613
654.150	0.0144228
654.228	0.0144495
654.307	0.0145078
654.385	0.0144559
654.463	0.0143189
654.541	0.0145930
654.619	0.0144594
654.697	0.0144218
654.775	0.0144082
654.853	0.0144999
654.932	0.0145296
655.010	0.0145129
655.088	0.0145920
655.166	0.0144823
655.244	0.0145055
655.322	0.0145425
655.400	0.0144855
655.478	0.0144296
655.557	0.0144500
655.635	0.0145330
655.713	0.0145682
655.791	0.0145273
655.869	0.0144397
655.947	0.0144744
656.025	0.0146183
656.103	0.0144247
656.182	0.0145684
656.260	0.0147652
656.338	0.0147504
656.416	0.0146730
656.494	0.0144160
656.572	0.0144677
656.650	0.0145735
656.728	0.0145862
656.807	0.0146324
656.885	0.0145393
656.963	0.0145122
657.041	0.0145999
657.119	0.0145544
657.197	0.0145255
657.275	0.0145357
657.353	0.0144559
657.432	0.0145528
657.510	0.0145545
657.588	0.0145419
657.666	0.0145127
657.744	0.0146110
657.822	0.0146191
657.900	0.0145332
657.978	0.0146184
658.057	0.0146593
658.135	0.0146230
658.213	0.0146408
658.291	0.0146764
658.369	0.0146714
658.447	0.0145813
658.525	0.0146429
658.603	0.0146273
658.682	0.0145996
658.760	0.0145907
658.838	0.0145500
658.916	0.0146520
658.994	0.0145711
659.072	0.0146445
659.150	0.0147359
659.228	0.0146702
659.307	0.0146050
659.385	0.0145574
659.463	0.0146139
659.541	0.0145599
659.619	0.0146198
659.697	0.0145089
659.775	0.0144547
659.853	0.0145945
659.932	0.0147019
660.010	0.0146064
660.088	0.0145744
660.166	0.0146815
660.244	0.0146172
660.322	0.0145648
660.400	0.0145569
660.478	0.0145389
660.557	0.0146032
660.635	0.0145496
660.713	0.0146345
660.791	0.0146010
660.869	0.0145675
660.947	0.0145965
661.025	0.0144976
661.103	0.0144280
661.182	0.0145889
661.260	0.0147199
661.338	0.0146632
661.416	0.0145602
661.494	0.0145728
661.572	0.0145843
661.650	0.0145380
661.728	0.0145387
661.807	0.0145292
661.885	0.0147312
661.963	0.0145338
662.041	0.0146397
662.119	0.0147487
662.197	0.0144907
662.275	0.0146237
662.353	0.0146577
662.432	0.0147136
662.510	0.0145733
662.588	0.0145995
662.666	0.0145957
662.744	0.0146536
662.822	0.0146612
662.900	0.0145940
662.978	0.0146047
663.057	0.0145911
663.135	0.0145646
663.213	0.0147176
663.291	0.0146382
663.369	0.0145718
663.447	0.0146421
663.525	0.0146706
663.603	0.0146251
663.682	0.0146975
663.760	0.0146632
663.838	0.0146658
663.916	0.0146024
663.994	0.0146257
664.072	0.0146883
664.150	0.0145870
664.228	0.0144705
664.307	0.0145239
664.385	0.0145429
664.463	0.0146136
664.541	0.0145676
664.619	0.0146502
664.697	0.0146855
664.775	0.0148362
664.853	0.0146970
664.932	0.0145931
665.010	0.0145216
665.088	0.0147316
665.166	0.0144970
665.244	0.0145546
665.322	0.0147240
665.400	0.0146998
665.478	0.0146774
665.557	0.0146255
665.635	0.0146001
665.713	0.0146735
665.791	0.0145738
665.869	0.0145197
665.947	0.0144948
666.025	0.0146358
666.103	0.0145520
666.182	0.0145721
666.260	0.0144448
666.338	0.0144363
666.416	0.0148065
666.494	0.0145020
666.572	0.0145226
666.650	0.0145186
666.728	0.0145287
666.807	0.0145477
666.885	0.0145809
666.963	0.0144945
667.041	0.0145354
667.119	0.0145714
667.197	0.0146279
667.275	0.0146550
667.353	0.0146809
667.432	0.0146627
667.510	0.0145562
667.588	0.0148081
667.666	0.0146696
667.744	0.0146994
667.822	0.0145755
667.900	0.0146778
667.978	0.0145543
668.057	0.0145965
668.135	0.0143941
668.213	0.0146004
668.291	0.0145143
668.369	0.0144063
668.447	0.0144072
668.525	0.0144307
668.603	0.0143130
668.682	0.0142482
668.760	0.0142803
668.838	0.0141759
668.916	0.0142862
668.994	0.0142698
669.072	0.0143634
669.150	0.0144476
669.228	0.0144375
669.307	0.0145807
669.385	0.0146368
669.463	0.0148051
669.541	0.0149794
669.619	0.0150134
669.697	0.0150195
669.775	0.0150504
669.853	0.0150335
669.932	0.0151487
670.010	0.0149879
670.088	0.0148791
670.166	0.0147590
670.244	0.0146575
670.322	0.0143417
670.400	0.0144398
670.478	0.0143335
670.557	0.0140757
670.635	0.0138079
670.713	0.0136303
670.791	0.0137064
670.869	0.0136270
670.947	0.0135608
671.025	0.0135618
671.103	0.0138480
671.182	0.0138888
671.260	0.0140668
671.338	0.0145341
671.416	0.0146446
671.494	0.0149313
671.572	0.0151592
671.650	0.0153266
671.728	0.0155491
671.807	0.0159179
671.885	0.0159429
671.963	0.0160215
672.041	0.0162253
672.119	0.0160638
672.197	0.0160089
672.275	0.0158981
672.353	0.0156973
672.432	0.0153929
672.510	0.0150634
672.588	0.0147519
672.666	0.0143501
672.744	0.0139765
672.822	0.0136694
672.900	0.0133324
672.978	0.0131325
673.057	0.0129476
673.135	0.0126345
673.213	0.0125584
673.291	0.0124199
673.369	0.0125705
673.447	0.0127624
673.525	0.0127721
673.603	0.0130942
673.682	0.0135110
673.760	0.0137106
673.838	0.0140516
673.916	0.0142424
673.994	0.0145464
674.072	0.0149067
674.150	0.0152354
674.228	0.0154922
674.307	0.0157643
674.385	0.0160129
674.463	0.0161216
674.541	0.0164027
674.619	0.0164105
674.697	0.0165022
674.775	0.0164279
674.853	0.0163506
674.932	0.0161990
675.010	0.0159926
675.088	0.0158483
675.166	0.0156969
675.244	0.0153307
675.322	0.0148431
675.400	0.0144712
675.478	0.0141498
675.557	0.0137255
675.635	0.0133547
675.713	0.0130278
675.791	0.0126633
675.869	0.0125372
675.947	0.0123048
676.025	0.0120893
676.103	0.0122881
676.182	0.0122900
676.260	0.0124542
676.338	0.0125925
676.416	0.0128899
676.494	0.0131326
676.572	0.0135245
676.650	0.0138200
676.728	0.0143187
676.807	0.0145699
676.885	0.0147221
676.963	0.0151582
677.041	0.0153282
677.119	0.0156033
677.197	0.0158060
677.275	0.0157372
677.353	0.0159399
677.432	0.0159536
677.510	0.0157984
677.588	0.0157876
677.666	0.0156689
677.744	0.0156666
677.822	0.0155420
677.900	0.0154185
677.978	0.0151179
678.057	0.0149812
678.135	0.0147065
678.213	0.0144584
678.291	0.0144131
678.369	0.0140888
678.447	0.0139552
678.525	0.0138213
678.603	0.0137983
678.682	0.0136350
678.760	0.0136497
678.838	0.0136721
678.916	0.0137678
678.994	0.0138645
679.072	0.0140254
679.150	0.0142948
679.228	0.0144219
679.307	0.0147420
679.385	0.0149119
679.463	0.0151422
679.541	0.0154033
679.619	0.0155389
679.697	0.0157503
679.775	0.0159774
679.853	0.0161745
679.932	0.0160848
680.010	0.0160667
680.088	0.0160385
680.166	0.0158557
680.244	0.0157809
680.322	0.0154301
680.400	0.0150695
680.478	0.0148780
680.557	0.0144182
680.635	0.0138940
680.713	0.0135433
680.791	0.0131664
680.869	0.0127583
680.947	0.0122918
681.025	0.0118802
681.103	0.0118991
681.182	0.0116597
681.260	0.0116361
681.338	0.0116767
681.416	0.0117583
681.494	0.0118373
681.572	0.0120648
681.650	0.0124028
681.728	0.0128574
681.807	0.0130779
681.885	0.0134820
681.963	0.0138633
682.041	0.0142332
682.119	0.0146380
682.197	0.0151427
682.275	0.0155470
682.353	0.0161352
682.432	0.0165255
682.510	0.0171267
682.588	0.0175798
682.666	0.0179606
682.744	0.0184396
682.822	0.0186721
682.900	0.0188451
682.978	0.0189585
683.057	0.0191311
683.135	0.0191325
683.213	0.0189112
683.291	0.0184846
683.369	0.0180075
683.447	0.0174961
683.525	0.0167728
683.603	0.0160734
683.682	0.0153777
683.760	0.0146974
683.838	0.0139954
683.916	0.0131151
683.994	0.0126617
684.072	0.0121606
684.150	0.0118581
684.228	0.0113721
684.307	0.0110040
684.385	0.0109045
684.463	0.0108477
684.541	0.0106461
684.619	0.0107680
684.697	0.0108236
684.775	0.0107195
684.853	0.0108580
684.932	0.0109837
685.010	0.0108096
685.088	0.0111598
685.166	0.0112593
685.244	0.0114022
685.322	0.0117279
685.400	0.0119798
685.478	0.0124062
685.557	0.0128822
685.635	0.0134933
685.713	0.0140672
685.791	0.0147849
685.869	0.0153136
685.947	0.0160175
686.025	0.0167013
686.103	0.0172929
686.182	0.0177792
686.260	0.0182909
686.338	0.0185777
686.416	0.0187813
686.494	0.0189289
686.572	0.0189001
686.650	0.0187615
686.728	0.0186462
686.807	0.0185715
686.885	0.0183494
686.963	0.0181697
687.041	0.0178683
687.119	0.0174173
687.197	0.0172875
687.275	0.0169577
687.353	0.0165822
687.432	0.0160365
687.510	0.0157407
687.588	0.0152800
687.666	0.0148208
687.744	0.0143981
687.822	0.0138718
687.900	0.0134874
687.978	0.0131187
688.057	0.0127148
688.135	0.0124252
688.213	0.0122616
688.291	0.0121199
688.369	0.0121161
688.447	0.0120439
688.525	0.0120889
688.603	0.0122756
688.682	0.0124422
688.760	0.0126862
688.838	0.0129262
688.916	0.0132177
688.994	0.0131926
689.072	0.0133390
689.150	0.0133875
689.228	0.0132719
689.307	0.0132428
689.385	0.0131398
689.463	0.0127552
689.541	0.0125817
689.619	0.0125668
689.697	0.0121711
689.775	0.0122161
689.853	0.0120731
689.932	0.0121487
690.010	0.0121305
690.088	0.0126067
690.166	0.0129994
690.244	0.0135828
690.322	0.0139786
690.400	0.0147666
690.478	0.0153162
690.557	0.0160663
690.635	0.0167888
690.713	0.0174742
690.791	0.0180087
690.869	0.0185895
690.947	0.0190121
691.025	0.0191761
691.103	0.0193441
691.182	0.0195050
691.260	0.0193739
691.338	0.0193356
691.416	0.0192078
691.494	0.0189466
691.572	0.0185090
691.650	0.0180479
691.728	0.0177580
691.807	0.0172501
691.885	0.0167116
691.963	0.0161615
692.041	0.0156596
692.119	0.0149317
692.197	0.0142201
692.275	0.0135886
692.353	0.0129055
692.432	0.0121745
692.510	0.0116036
692.588	0.0110226
692.666	0.0104518
692.744	0.0101748
692.822	0.00982292
692.900	0.00954445
692.978	0.00944191
693.057	0.00964684
693.135	0.00984184
693.213	0.0101886
693.291	0.0107873
693.369	0.0113625
693.447	0.0120123
693.525	0.0127024
693.603	0.0131873
693.682	0.0139610
693.760	0.0145911
693.838	0.0150171
693.916	0.0157780
693.994	0.0161075
694.072	0.0163567
694.150	0.0166460
694.228	0.0169404
694.307	0.0169110
694.385	0.0170525
694.463	0.0170371
694.541	0.0170702
694.619	0.0171012
694.697	0.0169704
694.775	0.0169228
694.853	0.0164250
694.932	0.0162659
695.010	0.0158614
695.088	0.0155326
695.166	0.0150320
695.244	0.0145331
695.322	0.0140451
695.400	0.0136724
695.478	0.0132690
695.557	0.0129755
695.635	0.0129044
695.713	0.0126600
695.791	0.0126872
695.869	0.0128481
695.947	0.0130135
696.025	0.0131414
696.103	0.0132654
696.182	0.0135693
696.260	0.0137112
696.338	0.0140059
696.416	0.0142004
696.494	0.0143117
696.572	0.0144302
696.650	0.0145142
696.728	0.0145277
696.807	0.0147077
696.885	0.0149575
696.963	0.0149402
697.041	0.0150057
697.119	0.0152949
697.197	0.0154286
697.275	0.0156176
697.353	0.0155781
697.432	0.0158012
697.510	0.0158097
697.588	0.0157539
697.666	0.0157529
697.744	0.0157153
697.822	0.0155687
697.900	0.0154742
697.978	0.0153915
698.057	0.0151826
698.135	0.0148646
698.213	0.0147071
698.291	0.0144805
698.369	0.0144434
698.447	0.0144756
698.525	0.0142597
698.603	0.0143378
698.682	0.0146780
698.760	0.0145721
698.838	0.0146583
698.916	0.0149020
698.994	0.0151141
699.072	0.0152392
699.150	0.0152740
699.228	0.0150231
699.307	0.0151374
699.385	0.0152203
699.463	0.0150883
699.541	0.0148747
699.619	0.0144933
699.697	0.0143252
699.775	0.0140939
699.853	0.0138709
699.932	0.0136718
700.010	0.0135123
700.088	0.0133076
700.166	0.0132822
700.244	0.0130891
700.322	0.0128944
700.400	0.0125916
700.478	0.0124982
700.557	0.0124857
700.635	0.0124902
700.713	0.0122364
700.791	0.0121388
700.869	0.0122842
700.947	0.0121527
701.025	0.0121983
701.103	0.0124953
701.182	0.0125530
701.260	0.0129369
701.338	0.0133143
701.416	0.0135578
701.494	0.0140138
701.572	0.0144249
701.650	0.0148437
701.728	0.0153896
701.807	0.0157491
701.885	0.0161223
701.963	0.0163773
702.041	0.0167133
702.119	0.0169840
702.197	0.0172680
702.275	0.0175037
702.353	0.0176092
702.432	0.0175570
702.510	0.0175553
702.588	0.0175603
702.666	0.0174522
702.744	0.0171922
702.822	0.0170473
702.900	0.0169738
702.978	0.0166444
703.057	0.0164404
703.135	0.0162428
703.213	0.0161282
703.291	0.0159457
703.369	0.0157806
703.447	0.0155956
703.525	0.0153941
703.603	0.0150917
703.682	0.0149651
703.760	0.0146857
703.838	0.0143769
703.916	0.0144766
703.994	0.0140439
704.072	0.0137424
704.150	0.0136726
704.228	0.0135770
704.307	0.0134882
704.385	0.0133378
704.463	0.0132430
704.541	0.0132889
704.619	0.0131061
704.697	0.0129018
704.775	0.0130669
704.853	0.0130360
704.932	0.0129919
705.010	0.0129578
705.088	0.0128822
705.166	0.0128167
705.244	0.0127841
705.322	0.0128848
705.400	0.0129812
705.478	0.0131229
705.557	0.0131327
705.635	0.0132350
705.713	0.0132716
705.791	0.0132520
705.869	0.0133143
705.947	0.0135405
706.025	0.0134995
706.103	0.0136217
706.182	0.0137753
706.260	0.0136847
706.338	0.0137929
706.416	0.0139693
706.494	0.0139647
706.572	0.0141203
706.650	0.0141423
706.728	0.0143800
706.807	0.0146481
706.885	0.0147089
706.963	0.0151076
707.041	0.0151546
707.119	0.0152390
707.197	0.0156516
707.275	0.0157611
707.353	0.0157802
707.432	0.0161541
707.510	0.0161739
707.588	0.0163686
707.666	0.0165451
707.744	0.0165320
707.822	0.0165771
707.900	0.0166970
707.978	0.0168099
708.057	0.0168372
708.135	0.0167772
708.213	0.0168527
708.291	0.0168526
708.369	0.0167896
708.447	0.0167885
708.525	0.0167210
708.603	0.0165385
708.682	0.0162276
708.760	0.0161594
708.838	0.0159495
708.916	0.0157716
708.994	0.0153645
709.072	0.0152682
709.150	0.0150494
709.228	0.0145772
709.307	0.0145050
709.385	0.0141842
709.463	0.0138473
709.541	0.0137308
709.619	0.0136744
709.697	0.0134860
709.775	0.0134946
709.853	0.0133195
709.932	0.0131180
710.010	0.0129904
710.088	0.0130059
710.166	0.0128020
710.244	0.0128659
710.322	0.0125918
710.400	0.0125302
710.478	0.0125562
710.557	0.0124430
710.635	0.0122038
710.713	0.0121487
710.791	0.0119671
710.869	0.0119685
710.947	0.0119944
711.025	0.0120463
711.103	0.0122734
711.182	0.0123444
711.260	0.0125341
711.338	0.0127578
711.416	0.0129640
711.494	0.0135246
711.572	0.0139883
711.650	0.0141273
711.728	0.0145807
711.807	0.0150890
711.885	0.0152943
711.963	0.0155884
712.041	0.0157202
712.119	0.0160410
712.197	0.0162949
712.275	0.0162713
712.353	0.0164211
712.432	0.0163444
712.510	0.0163293
712.588	0.0164015
712.666	0.0162257
712.744	0.0160640
712.822	0.0160973
712.900	0.0158938
712.978	0.0160095
713.057	0.0157455
713.135	0.0160017
713.213	0.0158772
713.291	0.0158557
713.369	0.0158092
713.447	0.0158561
713.525	0.0157113
713.603	0.0157419
713.682	0.0154256
713.760	0.0152826
713.838	0.0150719
713.916	0.0149084
713.994	0.0147667
714.072	0.0146193
714.150	0.0143470
714.228	0.0142734
714.307	0.0140579
714.385	0.0140453
714.463	0.0139442
714.541	0.0138891
714.619	0.0138174
714.697	0.0140088
714.775	0.0141582
714.853	0.0140115
714.932	0.0141695
715.010	0.0143057
715.088	0.0145775
715.166	0.0146378
715.244	0.0148564
715.322	0.0149669
715.400	0.0150684
715.478	0.0149944
715.557	0.0150553
715.635	0.0150446
715.713	0.0149939
715.791	0.0148349
715.869	0.0145886
715.947	0.0144298
716.025	0.0141665
716.103	0.0137334
716.182	0.0136443
716.260	0.0135544
716.338	0.0131960
716.416	0.0132068
716.494	0.0130546
716.572	0.0131462
716.650	0.0131317
716.728	0.0131490
716.807	0.0130067
716.885	0.0131942
716.963	0.0132921
717.041	0.0133947
717.119	0.0135374
717.197	0.0138144
717.275	0.0137665
717.353	0.0139842
717.432	0.0142136
717.510	0.0141461
717.588	0.0143342
717.666	0.0145473
717.744	0.0145450
717.822	0.0147321
717.900	0.0148727
717.978	0.0149571
718.057	0.0151213
718.135	0.0151700
718.213	0.0153115
718.291	0.0153299
718.369	0.0153153
718.447	0.0154764
718.525	0.0155209
718.603	0.0155283
718.682	0.0156718
718.760	0.0155856
718.838	0.0156049
718.916	0.0157598
718.994	0.0158397
719.072	0.0158149
719.150	0.0158027
719.228	0.0158072
719.307	0.0157919
719.385	0.0157321
719.463	0.0158270
719.541	0.0157502
719.619	0.0154871
719.697	0.0155977
719.775	0.0155120
719.853	0.0153607
719.932	0.0151113
720.010	0.0149446
720.088	0.0149094
720.166	0.0148105
720.244	0.0146669
720.322	0.0145919
720.400	0.0144221
720.478	0.0144429
720.557	0.0143701
720.635	0.0143371
720.713	0.0143945
720.791	0.0142226
720.869	0.0142624
720.947	0.0142000
721.025	0.0141917
721.103	0.0140952
721.182	0.0141780
721.260	0.0143870
721.338	0.0142000
721.416	0.0141718
721.494	0.0142146
721.572	0.0142947
721.650	0.0141838
721.728	0.0141357
721.807	0.0140952
721.885	0.0141196
721.963	0.0143843
722.041	0.0143187
722.119	0.0142393
722.197	0.0143347
722.275	0.0144225
722.353	0.0144910
722.432	0.0143303
722.510	0.0143900
722.588	0.0144533
722.666	0.0143876
722.744	0.0143761
722.822	0.0143737
722.900	0.0143420
722.978	0.0144469
723.057	0.0142179
723.135	0.0143342
723.213	0.0144329
723.291	0.0143143
723.369	0.0143284
723.447	0.0146306
723.525	0.0146336
723.603	0.0144947
723.682	0.0145401
723.760	0.0145108
723.838	0.0147386
723.916	0.0148561
723.994	0.0147856
724.072	0.0148337
724.150	0.0148378
724.228	0.0148888
724.307	0.0147520
724.385	0.0148022
724.463	0.0147935
724.541	0.0149379
724.619	0.0147788
724.697	0.0148753
724.775	0.0149607
724.853	0.0147888
724.932	0.0149223
725.010	0.0147990
725.088	0.0148946
725.166	0.0149828
725.244	0.0148002
725.322	0.0147888
725.400	0.0146632
725.478	0.0147801
725.557	0.0147404
725.635	0.0147674
725.713	0.0148262
725.791	0.0147353
725.869	0.0148346
725.947	0.0147431
726.025	0.0148919
726.103	0.0148499
726.182	0.0150767
726.260	0.0149171
726.338	0.0150103
726.416	0.0151500
726.494	0.0150392
726.572	0.0149839
726.650	0.0150845
726.728	0.0150684
726.807	0.0149921
726.885	0.0146934
726.963	0.0149815
727.041	0.0149058
727.119	0.0148537
727.197	0.0149825
727.275	0.0149346
727.353	0.0150571
727.432	0.0149532
727.510	0.0148668
727.588	0.0148526
727.666	0.0148451
727.744	0.0147144
727.822	0.0145452
727.900	0.0144546
727.978	0.0143501
728.057	0.0141940
728.135	0.0140282
728.213	0.0139939
728.291	0.0140604
728.369	0.0137920
728.447	0.0138796
728.525	0.0138313
728.603	0.0138828
728.682	0.0139852
728.760	0.0140094
728.838	0.0141138
728.916	0.0140553
728.994	0.0142462
729.072	0.0143045
729.150	0.0144167
729.228	0.0142802
729.307	0.0143439
729.385	0.0142857
729.463	0.0141654
729.541	0.0141940
729.619	0.0143195
729.697	0.0141279
729.775	0.0141280
729.853	0.0141718
729.932	0.0142265
730.010	0.0142199
730.088	0.0142807
730.166	0.0143127
730.244	0.0143817
730.322	0.0145483
730.400	0.0143810
730.478	0.0145016
730.557	0.0147424
730.635	0.0145924
730.713	0.0147820
730.791	0.0147511
730.869	0.0147912
730.947	0.0149383
731.025	0.0149785
731.103	0.0148871
731.182	0.0148293
731.260	0.0149794
731.338	0.0149420
731.416	0.0149308
731.494	0.0147699
731.572	0.0148643
731.650	0.0147955
731.728	0.0146503
731.807	0.0145973
731.885	0.0145061
731.963	0.0146309
732.041	0.0144843
732.119	0.0142833
732.197	0.0141852
732.275	0.0141870
732.353	0.0141039
732.432	0.0141637
732.510	0.0140388
732.588	0.0142444
732.666	0.0142496
732.744	0.0142827
732.822	0.0143253
732.900	0.0144310
732.978	0.0145102
733.057	0.0143885
733.135	0.0144517
733.213	0.0145493
733.291	0.0144548
733.369	0.0143544
733.447	0.0144749
733.525	0.0144055
733.603	0.0142015
733.682	0.0143989
733.760	0.0142107
733.838	0.0141777
733.916	0.0143443
733.994	0.0143579
734.072	0.0142979
734.150	0.0144501
734.228	0.0144280
734.307	0.0143972
734.385	0.0145053
734.463	0.0145364
734.541	0.0146003
734.619	0.0146400
734.697	0.0145296
734.775	0.0146537
734.853	0.0146266
734.932	0.0146089
735.010	0.0146762
735.088	0.0146781
735.166	0.0147535
735.244	0.0148832
735.322	0.0148415
735.400	0.0148563
735.478	0.0148889
735.557	0.0147627
735.635	0.0149177
735.713	0.0149957
