05/14/2022	19:26:45	Ver.	4.1	UNKNOWN
Optical Delay	650.016352	Delta X		0.078125	Sweeps	1	Scan Rate	0/0
Coordinates	Axis 1	NaN	Axis 2	NaN	Axis 3	NaN	Axis 4	NaN	Axis 5	NaN	Axis 6	0.000000
TX Power	0.000000	RX Power	0.000000

650.016	0.0145813
650.094	0.0145288
650.173	0.0145712
650.251	0.0145863
650.329	0.0144453
650.407	0.0144778
650.485	0.0145901
650.563	0.0146227
650.641	0.0144905
650.719	0.0145094
650.798	0.0146292
650.876	0.0145787
650.954	0.0146702
651.032	0.0145853
651.110	0.0146038
651.188	0.0145598
651.266	0.0146834
651.344	0.0146107
651.423	0.0145438
651.501	0.0146301
651.579	0.0146133
651.657	0.0146815
651.735	0.0145369
651.813	0.0146589
651.891	0.0146653
651.969	0.0146318
652.048	0.0148353
652.126	0.0147105
652.204	0.0146434
652.282	0.0144784
652.360	0.0145780
652.438	0.0147197
652.516	0.0146905
652.594	0.0146302
652.673	0.0147716
652.751	0.0146439
652.829	0.0145974
652.907	0.0146358
652.985	0.0147890
653.063	0.0146804
653.141	0.0146498
653.219	0.0147736
653.298	0.0147020
653.376	0.0146312
653.454	0.0147913
653.532	0.0145760
653.610	0.0146333
653.688	0.0146284
653.766	0.0146310
653.844	0.0147246
653.923	0.0147076
654.001	0.0148036
654.079	0.0146932
654.157	0.0146957
654.235	0.0146925
654.313	0.0147092
654.391	0.0147848
654.469	0.0146362
654.548	0.0146514
654.626	0.0148093
654.704	0.0146097
654.782	0.0146753
654.860	0.0145306
654.938	0.0145065
655.016	0.0145832
655.094	0.0146393
655.173	0.0146890
655.251	0.0147064
655.329	0.0147440
655.407	0.0145739
655.485	0.0145486
655.563	0.0147044
655.641	0.0147272
655.719	0.0146535
655.798	0.0146495
655.876	0.0147379
655.954	0.0148096
656.032	0.0146159
656.110	0.0147270
656.188	0.0148608
656.266	0.0146814
656.344	0.0146680
656.423	0.0146239
656.501	0.0146814
656.579	0.0147260
656.657	0.0145613
656.735	0.0146525
656.813	0.0146612
656.891	0.0146393
656.969	0.0147973
657.048	0.0147162
657.126	0.0146966
657.204	0.0146021
657.282	0.0147025
657.360	0.0146558
657.438	0.0147710
657.516	0.0148257
657.594	0.0147900
657.673	0.0146774
657.751	0.0146719
657.829	0.0146552
657.907	0.0147563
657.985	0.0148079
658.063	0.0147933
658.141	0.0147025
658.219	0.0145965
658.298	0.0147478
658.376	0.0146805
658.454	0.0147359
658.532	0.0146104
658.610	0.0147295
658.688	0.0146929
658.766	0.0146825
658.844	0.0146773
658.923	0.0147456
659.001	0.0147125
659.079	0.0147005
659.157	0.0147779
659.235	0.0146983
659.313	0.0145672
659.391	0.0146613
659.469	0.0147594
659.548	0.0147263
659.626	0.0147693
659.704	0.0147472
659.782	0.0146837
659.860	0.0148111
659.938	0.0147730
660.016	0.0147430
660.094	0.0147182
660.173	0.0148190
660.251	0.0148142
660.329	0.0145719
660.407	0.0147420
660.485	0.0148374
660.563	0.0147802
660.641	0.0146928
660.719	0.0148472
660.798	0.0148286
660.876	0.0147343
660.954	0.0147202
661.032	0.0147148
661.110	0.0146980
661.188	0.0147317
661.266	0.0146922
661.344	0.0146549
661.423	0.0148024
661.501	0.0145052
661.579	0.0147153
661.657	0.0148192
661.735	0.0147257
661.813	0.0147156
661.891	0.0148312
661.969	0.0146725
662.048	0.0146682
662.126	0.0146613
662.204	0.0146416
662.282	0.0148254
662.360	0.0147301
662.438	0.0146760
662.516	0.0147800
662.594	0.0147711
662.673	0.0147859
662.751	0.0147588
662.829	0.0146473
662.907	0.0148597
662.985	0.0147052
663.063	0.0146313
663.141	0.0146205
663.219	0.0147370
663.298	0.0147626
663.376	0.0145773
663.454	0.0146588
663.532	0.0146914
663.610	0.0146468
663.688	0.0146070
663.766	0.0146152
663.844	0.0146899
663.923	0.0146479
664.001	0.0145656
664.079	0.0145684
664.157	0.0145959
664.235	0.0145780
664.313	0.0147116
664.391	0.0148241
664.469	0.0145467
664.548	0.0145493
664.626	0.0144817
664.704	0.0146384
664.782	0.0146920
664.860	0.0146634
664.938	0.0145337
665.016	0.0145623
665.094	0.0146076
665.173	0.0146041
665.251	0.0146062
665.329	0.0146739
665.407	0.0146164
665.485	0.0145337
665.563	0.0146555
665.641	0.0144228
665.719	0.0146196
665.798	0.0146062
665.876	0.0144547
665.954	0.0145802
666.032	0.0146359
666.110	0.0146119
666.188	0.0146254
666.266	0.0145686
666.344	0.0145703
666.423	0.0145574
666.501	0.0145326
666.579	0.0144451
666.657	0.0146819
666.735	0.0145213
666.813	0.0145833
666.891	0.0145481
666.969	0.0145105
667.048	0.0145622
667.126	0.0147514
667.204	0.0145995
667.282	0.0146745
667.360	0.0147307
667.438	0.0147011
667.516	0.0146603
667.594	0.0145411
667.673	0.0147708
667.751	0.0147662
667.829	0.0148935
667.907	0.0147949
667.985	0.0145251
668.063	0.0146090
668.141	0.0145609
668.219	0.0145853
668.298	0.0145776
668.376	0.0145469
668.454	0.0143544
668.532	0.0142853
668.610	0.0143893
668.688	0.0144641
668.766	0.0145044
668.844	0.0143449
668.923	0.0145871
669.001	0.0144465
669.079	0.0144666
669.157	0.0148057
669.235	0.0148717
669.313	0.0147952
669.391	0.0148512
669.469	0.0148909
669.548	0.0148598
669.626	0.0150196
669.704	0.0149771
669.782	0.0148978
669.860	0.0148907
669.938	0.0148306
670.016	0.0147466
670.094	0.0144858
670.173	0.0143424
670.251	0.0142542
670.329	0.0140773
670.407	0.0137768
670.485	0.0137136
670.563	0.0136363
670.641	0.0136053
670.719	0.0135067
670.798	0.0135842
670.876	0.0137381
670.954	0.0137502
671.032	0.0140057
671.110	0.0140041
671.188	0.0142700
671.266	0.0146029
671.344	0.0149280
671.423	0.0152444
671.501	0.0153242
671.579	0.0154718
671.657	0.0158494
671.735	0.0159012
671.813	0.0161279
671.891	0.0159862
671.969	0.0160250
672.048	0.0161078
672.126	0.0159476
672.204	0.0158067
672.282	0.0154257
672.360	0.0151146
672.438	0.0149055
672.516	0.0144566
672.594	0.0139890
672.673	0.0137936
672.751	0.0135632
672.829	0.0131853
672.907	0.0129794
672.985	0.0127624
673.063	0.0124808
673.141	0.0125896
673.219	0.0126520
673.298	0.0129139
673.376	0.0129127
673.454	0.0131478
673.532	0.0134180
673.610	0.0138406
673.688	0.0140723
673.766	0.0143451
673.844	0.0148430
673.923	0.0151382
674.001	0.0154639
674.079	0.0159542
674.157	0.0159552
674.235	0.0162688
674.313	0.0165063
674.391	0.0166837
674.469	0.0168614
674.548	0.0167398
674.626	0.0166933
674.704	0.0166005
674.782	0.0164767
674.860	0.0161341
674.938	0.0159491
675.016	0.0157323
675.094	0.0154631
675.173	0.0150851
675.251	0.0145684
675.329	0.0142850
675.407	0.0138950
675.485	0.0133138
675.563	0.0131019
675.641	0.0127560
675.719	0.0127057
675.798	0.0123574
675.876	0.0123100
675.954	0.0122253
676.032	0.0123456
676.110	0.0123980
676.188	0.0125784
676.266	0.0127615
676.344	0.0130930
676.423	0.0136142
676.501	0.0137556
676.579	0.0140241
676.657	0.0145267
676.735	0.0149404
676.813	0.0150130
676.891	0.0155630
676.969	0.0156584
677.048	0.0159473
677.126	0.0161028
677.204	0.0161238
677.282	0.0162585
677.360	0.0162968
677.438	0.0161901
677.516	0.0161641
677.594	0.0159994
677.673	0.0159282
677.751	0.0158472
677.829	0.0154924
677.907	0.0152608
677.985	0.0149725
678.063	0.0150044
678.141	0.0146728
678.219	0.0144138
678.298	0.0141914
678.376	0.0140247
678.454	0.0139783
678.532	0.0137011
678.610	0.0137182
678.688	0.0137143
678.766	0.0136900
678.844	0.0136407
678.923	0.0137548
679.001	0.0139751
679.079	0.0140731
679.157	0.0141123
679.235	0.0144442
679.313	0.0147411
679.391	0.0149091
679.469	0.0152492
679.548	0.0155311
679.626	0.0156924
679.704	0.0159779
679.782	0.0160963
679.860	0.0163736
679.938	0.0163252
680.016	0.0163831
680.094	0.0162397
680.173	0.0159256
680.251	0.0156236
680.329	0.0153477
680.407	0.0151618
680.485	0.0146584
680.563	0.0142042
680.641	0.0138425
680.719	0.0133079
680.798	0.0126982
680.876	0.0125719
680.954	0.0121588
681.032	0.0119006
681.110	0.0117652
681.188	0.0117648
681.266	0.0118942
681.344	0.0118621
681.423	0.0121673
681.501	0.0123724
681.579	0.0126472
681.657	0.0130438
681.735	0.0132817
681.813	0.0136743
681.891	0.0141503
681.969	0.0146535
682.048	0.0149386
682.126	0.0153201
682.204	0.0156702
682.282	0.0162186
682.360	0.0165821
682.438	0.0170150
682.516	0.0174223
682.594	0.0178931
682.673	0.0181490
682.751	0.0183886
682.829	0.0185715
682.907	0.0187804
682.985	0.0187415
683.063	0.0189120
683.141	0.0185139
683.219	0.0183196
683.298	0.0179287
683.376	0.0174545
683.454	0.0169325
683.532	0.0164506
683.610	0.0158812
683.688	0.0150616
683.766	0.0144607
683.844	0.0137543
683.923	0.0133685
684.001	0.0127853
684.079	0.0123332
684.157	0.0118852
684.235	0.0116129
684.313	0.0114001
684.391	0.0113507
684.469	0.0112361
684.548	0.0112324
684.626	0.0111578
684.704	0.0111075
684.782	0.0110652
684.860	0.0110136
684.938	0.0111885
685.016	0.0112327
685.094	0.0114658
685.173	0.0115434
685.251	0.0118558
685.329	0.0120800
685.407	0.0125274
685.485	0.0130453
685.563	0.0133926
685.641	0.0142753
685.719	0.0148383
685.798	0.0154028
685.876	0.0160055
685.954	0.0167124
686.032	0.0173223
686.110	0.0176824
686.188	0.0180818
686.266	0.0184492
686.344	0.0187658
686.423	0.0188249
686.501	0.0190421
686.579	0.0190228
686.657	0.0188747
686.735	0.0189281
686.813	0.0187878
686.891	0.0187076
686.969	0.0185629
687.048	0.0182191
687.126	0.0180649
687.204	0.0175900
687.282	0.0172298
687.360	0.0168178
687.438	0.0163502
687.516	0.0157004
687.594	0.0151321
687.673	0.0145743
687.751	0.0137471
687.829	0.0132927
687.907	0.0128651
687.985	0.0121716
688.063	0.0117896
688.141	0.0112611
688.219	0.0112477
688.298	0.0110181
688.376	0.0110405
688.454	0.0110452
688.532	0.0111572
688.610	0.0112336
688.688	0.0115585
688.766	0.0119227
688.844	0.0123145
688.923	0.0125465
689.001	0.0127258
689.079	0.0130677
689.157	0.0134129
689.235	0.0136034
689.313	0.0136732
689.391	0.0135413
689.469	0.0137026
689.548	0.0136042
689.626	0.0134607
689.704	0.0132554
689.782	0.0132293
689.860	0.0132699
689.938	0.0131988
690.016	0.0134769
690.094	0.0135851
690.173	0.0138628
690.251	0.0141731
690.329	0.0144857
690.407	0.0149868
690.485	0.0155200
690.563	0.0158576
690.641	0.0162921
690.719	0.0168848
690.798	0.0172317
690.876	0.0175877
690.954	0.0181017
691.032	0.0182983
691.110	0.0185204
691.188	0.0188491
691.266	0.0187299
691.344	0.0187776
691.423	0.0187866
691.501	0.0187213
691.579	0.0186943
691.657	0.0185974
691.735	0.0183359
691.813	0.0180511
691.891	0.0177567
691.969	0.0172527
692.048	0.0168645
692.126	0.0161337
692.204	0.0156012
692.282	0.0148610
692.360	0.0139000
692.438	0.0129900
692.516	0.0121289
692.594	0.0114515
692.673	0.0106057
692.751	0.0100327
692.829	0.00945442
692.907	0.00906700
692.985	0.00891602
693.063	0.00881508
693.141	0.00905930
693.219	0.00943901
693.298	0.00977409
693.376	0.0103485
693.454	0.0108217
693.532	0.0115795
693.610	0.0123176
693.688	0.0130959
693.766	0.0137571
693.844	0.0144620
693.923	0.0149313
694.001	0.0155635
694.079	0.0161317
694.157	0.0165845
694.235	0.0168611
694.313	0.0172886
694.391	0.0176557
694.469	0.0178098
694.548	0.0179951
694.626	0.0181306
694.704	0.0180651
694.782	0.0181139
694.860	0.0180256
694.938	0.0177835
695.016	0.0175420
695.094	0.0170004
695.173	0.0165370
695.251	0.0160103
695.329	0.0154921
695.407	0.0149404
695.485	0.0144566
695.563	0.0138754
695.641	0.0134064
695.719	0.0131402
695.798	0.0128249
695.876	0.0126511
695.954	0.0124490
696.032	0.0125308
696.110	0.0126891
696.188	0.0128847
696.266	0.0130776
696.344	0.0131711
696.423	0.0133691
696.501	0.0137515
696.579	0.0139322
696.657	0.0140456
696.735	0.0142747
696.813	0.0146318
696.891	0.0147028
696.969	0.0150030
697.048	0.0153746
697.126	0.0154513
697.204	0.0156828
697.282	0.0160722
697.360	0.0161656
697.438	0.0166320
697.516	0.0167070
697.594	0.0166418
697.673	0.0167980
697.751	0.0167326
697.829	0.0166054
697.907	0.0164599
697.985	0.0162146
698.063	0.0158291
698.141	0.0154168
698.219	0.0150796
698.298	0.0147195
698.376	0.0142551
698.454	0.0139387
698.532	0.0137305
698.610	0.0136770
698.688	0.0135506
698.766	0.0134801
698.844	0.0133351
698.923	0.0136686
699.001	0.0137138
699.079	0.0138509
699.157	0.0141152
699.235	0.0141238
699.313	0.0145419
699.391	0.0146323
699.469	0.0147032
699.548	0.0148701
699.626	0.0150597
699.704	0.0152374
699.782	0.0149429
699.860	0.0149699
699.938	0.0151202
700.016	0.0148496
700.094	0.0147829
700.173	0.0148108
700.251	0.0145324
700.329	0.0143457
700.407	0.0142691
700.485	0.0140051
700.563	0.0138190
700.641	0.0134688
700.719	0.0133010
700.798	0.0131725
700.876	0.0130135
700.954	0.0127410
701.032	0.0125804
701.110	0.0123573
701.188	0.0126047
701.266	0.0126369
701.344	0.0128020
701.423	0.0127652
701.501	0.0130157
701.579	0.0133434
701.657	0.0136430
701.735	0.0140697
701.813	0.0145448
701.891	0.0150769
701.969	0.0154922
702.048	0.0160256
702.126	0.0164632
702.204	0.0168054
702.282	0.0173180
702.360	0.0175251
702.438	0.0179181
702.516	0.0181647
702.594	0.0182182
702.673	0.0181485
702.751	0.0180722
702.829	0.0180583
702.907	0.0178572
702.985	0.0175407
703.063	0.0173062
703.141	0.0169399
703.219	0.0166282
703.298	0.0162697
703.376	0.0157883
703.454	0.0157126
703.532	0.0151373
703.610	0.0149651
703.688	0.0146002
703.766	0.0142226
703.844	0.0139099
703.923	0.0135592
704.001	0.0132983
704.079	0.0131129
704.157	0.0129079
704.235	0.0127704
704.313	0.0126035
704.391	0.0125895
704.469	0.0125456
704.548	0.0125500
704.626	0.0125546
704.704	0.0127242
704.782	0.0127478
704.860	0.0128400
704.938	0.0129575
705.016	0.0128385
705.094	0.0131615
705.173	0.0131541
705.251	0.0132443
705.329	0.0132966
705.407	0.0134729
705.485	0.0135908
705.563	0.0137148
705.641	0.0136156
705.719	0.0137319
705.798	0.0139601
705.876	0.0140026
705.954	0.0138847
706.032	0.0139112
706.110	0.0141290
706.188	0.0141949
706.266	0.0142982
706.344	0.0144886
706.423	0.0144690
706.501	0.0145918
706.579	0.0146401
706.657	0.0146400
706.735	0.0149134
706.813	0.0150298
706.891	0.0151417
706.969	0.0152404
707.048	0.0154414
707.126	0.0153644
707.204	0.0154430
707.282	0.0155769
707.360	0.0156616
707.438	0.0156991
707.516	0.0156888
707.594	0.0158396
707.673	0.0159906
707.751	0.0160329
707.829	0.0160608
707.907	0.0162950
707.985	0.0165462
708.063	0.0164828
708.141	0.0164856
708.219	0.0166935
708.298	0.0165614
708.376	0.0166038
708.454	0.0166209
708.532	0.0166128
708.610	0.0164812
708.688	0.0164115
708.766	0.0162270
708.844	0.0160995
708.923	0.0158730
709.001	0.0156075
709.079	0.0152884
709.157	0.0151250
709.235	0.0149356
709.313	0.0147832
709.391	0.0145087
709.469	0.0143236
709.548	0.0140123
709.626	0.0139812
709.704	0.0137633
709.782	0.0137295
709.860	0.0133889
709.938	0.0131706
710.016	0.0131792
710.094	0.0129037
710.173	0.0127547
710.251	0.0124675
710.329	0.0122866
710.407	0.0120948
710.485	0.0118896
710.563	0.0116734
710.641	0.0117426
710.719	0.0115868
710.798	0.0117799
710.876	0.0117823
710.954	0.0119326
711.032	0.0121083
711.110	0.0123027
711.188	0.0125875
711.266	0.0129401
711.344	0.0134321
711.423	0.0137119
711.501	0.0140804
711.579	0.0142760
711.657	0.0149647
711.735	0.0151861
711.813	0.0153425
711.891	0.0157402
711.969	0.0160771
712.048	0.0159978
712.126	0.0162681
712.204	0.0164278
712.282	0.0163601
712.360	0.0165358
712.438	0.0164785
712.516	0.0165008
712.594	0.0164224
712.673	0.0162058
712.751	0.0161423
712.829	0.0160596
712.907	0.0160478
712.985	0.0160201
713.063	0.0160000
713.141	0.0159592
713.219	0.0160516
713.298	0.0160379
713.376	0.0159844
713.454	0.0159213
713.532	0.0158275
713.610	0.0159496
713.688	0.0158880
713.766	0.0159224
713.844	0.0157977
713.923	0.0157244
714.001	0.0156415
714.079	0.0156545
714.157	0.0154301
714.235	0.0152815
714.313	0.0153115
714.391	0.0151136
714.469	0.0148915
714.548	0.0145969
714.626	0.0143605
714.704	0.0143079
714.782	0.0141201
714.860	0.0140487
714.938	0.0139103
715.016	0.0139557
715.094	0.0139783
715.173	0.0140285
715.251	0.0141530
715.329	0.0140501
715.407	0.0139614
715.485	0.0143620
715.563	0.0143595
715.641	0.0142051
715.719	0.0144289
715.798	0.0143860
715.876	0.0142171
715.954	0.0141557
716.032	0.0140185
716.110	0.0136948
716.188	0.0136626
716.266	0.0136678
716.344	0.0134585
716.423	0.0132909
716.501	0.0131608
716.579	0.0131385
716.657	0.0133102
716.735	0.0133461
716.813	0.0134772
716.891	0.0135168
716.969	0.0136511
717.048	0.0138615
717.126	0.0140135
717.204	0.0141846
717.282	0.0144344
717.360	0.0146599
717.438	0.0147188
717.516	0.0147849
717.594	0.0150739
717.673	0.0149891
717.751	0.0152015
717.829	0.0152867
717.907	0.0151671
717.985	0.0152606
718.063	0.0152980
718.141	0.0152994
718.219	0.0152694
718.298	0.0154565
718.376	0.0155430
718.454	0.0155717
718.532	0.0156406
718.610	0.0156734
718.688	0.0156721
718.766	0.0157980
718.844	0.0157477
718.923	0.0158744
719.001	0.0159024
719.079	0.0159285
719.157	0.0160350
719.235	0.0160146
719.313	0.0159146
719.391	0.0159036
719.469	0.0158669
719.548	0.0157099
719.626	0.0157289
719.704	0.0155740
719.782	0.0153309
719.860	0.0151897
719.938	0.0152425
720.016	0.0150178
720.094	0.0150375
720.173	0.0146631
720.251	0.0146982
720.329	0.0147102
720.407	0.0146465
720.485	0.0146072
720.563	0.0143600
720.641	0.0142088
720.719	0.0141502
720.798	0.0141937
720.876	0.0139894
720.954	0.0140345
721.032	0.0140090
721.110	0.0139117
721.188	0.0139603
721.266	0.0139845
721.344	0.0140887
721.423	0.0140620
721.501	0.0141022
721.579	0.0142311
721.657	0.0143568
721.735	0.0142832
721.813	0.0142122
721.891	0.0144322
721.969	0.0145061
722.048	0.0147356
722.126	0.0146214
722.204	0.0145084
722.282	0.0144776
722.360	0.0145168
722.438	0.0145333
722.516	0.0145563
722.594	0.0142400
722.673	0.0143742
722.751	0.0143366
722.829	0.0143741
722.907	0.0142355
722.985	0.0143291
723.063	0.0141717
723.141	0.0141705
723.219	0.0142858
723.298	0.0141924
723.376	0.0143148
723.454	0.0143735
723.532	0.0144682
723.610	0.0144448
723.688	0.0146873
723.766	0.0147425
723.844	0.0149375
723.923	0.0148764
724.001	0.0151035
724.079	0.0149915
724.157	0.0150002
724.235	0.0150027
724.313	0.0150677
724.391	0.0150093
724.469	0.0151235
724.548	0.0149242
724.626	0.0149872
724.704	0.0151287
724.782	0.0150574
724.860	0.0150124
724.938	0.0150037
725.016	0.0149437
725.094	0.0149902
725.173	0.0150240
725.251	0.0149380
725.329	0.0147762
725.407	0.0146904
725.485	0.0148160
725.563	0.0147836
725.641	0.0147620
725.719	0.0146023
725.798	0.0144753
725.876	0.0146276
725.954	0.0146141
726.032	0.0145332
726.110	0.0145611
726.188	0.0145620
726.266	0.0144289
726.344	0.0144661
726.423	0.0145805
726.501	0.0147161
726.579	0.0145988
726.657	0.0144553
726.735	0.0146412
726.813	0.0146674
726.891	0.0147441
726.969	0.0147540
727.048	0.0145443
727.126	0.0146855
727.204	0.0147433
727.282	0.0147621
727.360	0.0148763
727.438	0.0147106
727.516	0.0145366
727.594	0.0145078
727.673	0.0144175
727.751	0.0145079
727.829	0.0143327
727.907	0.0142037
727.985	0.0141103
728.063	0.0141708
728.141	0.0140536
728.219	0.0140668
728.298	0.0139825
728.376	0.0139265
728.454	0.0139037
728.532	0.0139407
728.610	0.0139727
728.688	0.0140875
728.766	0.0139199
728.844	0.0140090
728.923	0.0140868
729.001	0.0141756
729.079	0.0142213
729.157	0.0142079
729.235	0.0141917
729.313	0.0143268
729.391	0.0143100
729.469	0.0143186
729.548	0.0144332
729.626	0.0143407
729.704	0.0144402
729.782	0.0143353
729.860	0.0144978
729.938	0.0144164
730.016	0.0143163
730.094	0.0144563
730.173	0.0145637
730.251	0.0145273
730.329	0.0144955
730.407	0.0146632
730.485	0.0147106
730.563	0.0147901
730.641	0.0146925
730.719	0.0149352
730.798	0.0148734
730.876	0.0150183
730.954	0.0149474
731.032	0.0150475
731.110	0.0152417
731.188	0.0153708
731.266	0.0152256
731.344	0.0151594
731.423	0.0154114
731.501	0.0153098
731.579	0.0149513
731.657	0.0149598
731.735	0.0149393
731.813	0.0150303
731.891	0.0148293
731.969	0.0146673
732.048	0.0146540
732.126	0.0144734
732.204	0.0143270
732.282	0.0142654
732.360	0.0144711
732.438	0.0144637
732.516	0.0143916
732.594	0.0144002
732.673	0.0143898
732.751	0.0144590
732.829	0.0146386
732.907	0.0144631
732.985	0.0145809
733.063	0.0144370
733.141	0.0144675
733.219	0.0145486
733.298	0.0145631
733.376	0.0145998
733.454	0.0144359
733.532	0.0145677
733.610	0.0145723
733.688	0.0145687
733.766	0.0146117
733.844	0.0145850
733.923	0.0145804
734.001	0.0144951
734.079	0.0146558
734.157	0.0146436
734.235	0.0147010
734.313	0.0146812
734.391	0.0148052
734.469	0.0146980
734.548	0.0145692
734.626	0.0147809
734.704	0.0146355
734.782	0.0145544
734.860	0.0146516
734.938	0.0147723
735.016	0.0146362
735.094	0.0145921
735.173	0.0145367
735.251	0.0145476
735.329	0.0146239
735.407	0.0145257
735.485	0.0143708
735.563	0.0144778
735.641	0.0146632
735.719	0.0146662
