05/14/2022	19:27:00	Ver.	4.1	UNKNOWN
Optical Delay	650.009681	Delta X		0.078125	Sweeps	1	Scan Rate	0/0
Coordinates	Axis 1	NaN	Axis 2	NaN	Axis 3	NaN	Axis 4	NaN	Axis 5	NaN	Axis 6	0.000000
TX Power	0.000000	RX Power	0.000000

650.010	0.0143482
650.088	0.0144741
650.166	0.0143771
650.244	0.0143025
650.322	0.0142812
650.400	0.0143201
650.478	0.0144300
650.557	0.0143078
650.635	0.0144239
650.713	0.0143148
650.791	0.0145158
650.869	0.0143734
650.947	0.0144746
651.025	0.0144521
651.103	0.0144048
651.182	0.0144338
651.260	0.0145108
651.338	0.0144661
651.416	0.0145867
651.494	0.0144343
651.572	0.0143714
651.650	0.0144453
651.728	0.0143740
651.807	0.0144135
651.885	0.0143654
651.963	0.0144688
652.041	0.0145389
652.119	0.0144663
652.197	0.0142974
652.275	0.0143730
652.353	0.0145076
652.432	0.0145484
652.510	0.0144122
652.588	0.0144187
652.666	0.0144099
652.744	0.0144127
652.822	0.0143668
652.900	0.0144521
652.978	0.0144097
653.057	0.0142956
653.135	0.0143861
653.213	0.0142790
653.291	0.0144191
653.369	0.0144752
653.447	0.0143200
653.525	0.0144411
653.603	0.0144285
653.682	0.0143120
653.760	0.0143956
653.838	0.0142551
653.916	0.0144142
653.994	0.0144064
654.072	0.0145551
654.150	0.0144645
654.228	0.0142461
654.307	0.0143972
654.385	0.0144545
654.463	0.0143853
654.541	0.0143405
654.619	0.0144067
654.697	0.0144199
654.775	0.0142538
654.853	0.0143417
654.932	0.0143261
655.010	0.0144620
655.088	0.0143817
655.166	0.0142908
655.244	0.0142645
655.322	0.0144501
655.400	0.0143746
655.478	0.0142987
655.557	0.0144170
655.635	0.0145045
655.713	0.0143335
655.791	0.0145543
655.869	0.0143548
655.947	0.0144321
656.025	0.0144560
656.103	0.0146367
656.182	0.0143309
656.260	0.0143983
656.338	0.0144009
656.416	0.0145908
656.494	0.0143575
656.572	0.0144157
656.650	0.0144820
656.728	0.0144421
656.807	0.0143487
656.885	0.0144936
656.963	0.0144337
657.041	0.0144684
657.119	0.0143600
657.197	0.0144826
657.275	0.0143702
657.353	0.0143921
657.432	0.0144978
657.510	0.0144398
657.588	0.0144629
657.666	0.0144442
657.744	0.0144325
657.822	0.0144529
657.900	0.0144214
657.978	0.0143956
658.057	0.0144746
658.135	0.0143679
658.213	0.0144044
658.291	0.0142912
658.369	0.0143787
658.447	0.0143604
658.525	0.0144227
658.603	0.0143759
658.682	0.0143552
658.760	0.0143069
658.838	0.0143961
658.916	0.0143699
658.994	0.0142979
659.072	0.0144207
659.150	0.0142249
659.228	0.0142452
659.307	0.0143054
659.385	0.0142964
659.463	0.0143029
659.541	0.0143372
659.619	0.0144346
659.697	0.0144238
659.775	0.0143716
659.853	0.0142324
659.932	0.0143375
660.010	0.0142882
660.088	0.0141803
660.166	0.0143806
660.244	0.0144232
660.322	0.0143412
660.400	0.0143292
660.478	0.0142982
660.557	0.0142451
660.635	0.0143563
660.713	0.0144430
660.791	0.0143486
660.869	0.0143009
660.947	0.0143753
661.025	0.0143555
661.103	0.0143194
661.182	0.0142861
661.260	0.0144564
661.338	0.0144255
661.416	0.0144438
661.494	0.0142657
661.572	0.0142878
661.650	0.0143665
661.728	0.0144762
661.807	0.0143451
661.885	0.0142598
661.963	0.0143559
662.041	0.0144695
662.119	0.0142993
662.197	0.0144023
662.275	0.0143919
662.353	0.0143903
662.432	0.0142904
662.510	0.0144258
662.588	0.0141827
662.666	0.0143482
662.744	0.0143707
662.822	0.0142798
662.900	0.0143645
662.978	0.0143138
663.057	0.0142469
663.135	0.0144107
663.213	0.0144277
663.291	0.0143151
663.369	0.0143036
663.447	0.0142595
663.525	0.0143613
663.603	0.0143122
663.682	0.0143571
663.760	0.0142880
663.838	0.0143364
663.916	0.0142912
663.994	0.0142271
664.072	0.0143546
664.150	0.0144148
664.228	0.0143140
664.307	0.0143634
664.385	0.0142980
664.463	0.0142538
664.541	0.0143153
664.619	0.0140686
664.697	0.0141399
664.775	0.0141019
664.853	0.0140703
664.932	0.0142452
665.010	0.0141555
665.088	0.0141278
665.166	0.0142561
665.244	0.0142042
665.322	0.0140750
665.400	0.0141808
665.478	0.0140919
665.557	0.0141436
665.635	0.0141163
665.713	0.0140801
665.791	0.0140221
665.869	0.0140817
665.947	0.0140160
666.025	0.0141735
666.103	0.0141275
666.182	0.0142162
666.260	0.0141911
666.338	0.0142257
666.416	0.0142979
666.494	0.0143715
666.572	0.0144038
666.650	0.0143197
666.728	0.0144249
666.807	0.0144121
666.885	0.0143910
666.963	0.0145098
667.041	0.0145327
667.119	0.0144025
667.197	0.0144360
667.275	0.0143544
667.353	0.0144445
667.432	0.0143027
667.510	0.0143140
667.588	0.0143044
667.666	0.0142358
667.744	0.0141438
667.822	0.0142307
667.900	0.0141072
667.978	0.0141515
668.057	0.0142374
668.135	0.0141567
668.213	0.0141553
668.291	0.0141119
668.369	0.0141410
668.447	0.0141865
668.525	0.0142309
668.603	0.0142648
668.682	0.0143266
668.760	0.0145564
668.838	0.0145963
668.916	0.0147526
668.994	0.0146288
669.072	0.0147643
669.150	0.0148801
669.228	0.0149059
669.307	0.0148138
669.385	0.0148069
669.463	0.0146136
669.541	0.0144311
669.619	0.0144819
669.697	0.0142754
669.775	0.0140874
669.853	0.0141874
669.932	0.0139595
670.010	0.0137743
670.088	0.0137016
670.166	0.0136813
670.244	0.0136784
670.322	0.0135322
670.400	0.0136107
670.478	0.0136995
670.557	0.0136328
670.635	0.0137723
670.713	0.0140873
670.791	0.0142963
670.869	0.0143218
670.947	0.0148258
671.025	0.0149189
671.103	0.0152338
671.182	0.0155437
671.260	0.0156436
671.338	0.0158700
671.416	0.0159095
671.494	0.0158882
671.572	0.0160194
671.650	0.0157329
671.728	0.0156230
671.807	0.0155323
671.885	0.0151900
671.963	0.0148114
672.041	0.0144553
672.119	0.0141832
672.197	0.0139026
672.275	0.0134689
672.353	0.0132082
672.432	0.0128543
672.510	0.0127554
672.588	0.0125046
672.666	0.0124035
672.744	0.0124339
672.822	0.0124856
672.900	0.0126147
672.978	0.0127378
673.057	0.0130246
673.135	0.0133171
673.213	0.0136711
673.291	0.0139979
673.369	0.0143459
673.447	0.0147461
673.525	0.0151466
673.603	0.0153894
673.682	0.0157951
673.760	0.0161749
673.838	0.0163062
673.916	0.0164906
673.994	0.0167153
674.072	0.0168311
674.150	0.0167700
674.228	0.0166966
674.307	0.0164246
674.385	0.0160564
674.463	0.0159799
674.541	0.0157028
674.619	0.0152593
674.697	0.0150612
674.775	0.0146760
674.853	0.0141713
674.932	0.0138618
675.010	0.0135294
675.088	0.0130991
675.166	0.0127119
675.244	0.0125201
675.322	0.0121203
675.400	0.0120422
675.478	0.0120265
675.557	0.0119304
675.635	0.0118655
675.713	0.0119708
675.791	0.0123113
675.869	0.0125098
675.947	0.0128372
676.025	0.0131680
676.103	0.0134919
676.182	0.0138988
676.260	0.0143419
676.338	0.0146230
676.416	0.0151061
676.494	0.0152646
676.572	0.0156425
676.650	0.0157552
676.728	0.0160559
676.807	0.0162384
676.885	0.0162286
676.963	0.0162122
677.041	0.0162679
677.119	0.0161707
677.197	0.0160490
677.275	0.0159969
677.353	0.0157772
677.432	0.0154567
677.510	0.0151836
677.588	0.0149424
677.666	0.0147752
677.744	0.0144767
677.822	0.0141214
677.900	0.0139575
677.978	0.0138105
678.057	0.0134496
678.135	0.0135564
678.213	0.0132532
678.291	0.0132481
678.369	0.0131789
678.447	0.0132275
678.525	0.0131333
678.603	0.0133049
678.682	0.0133505
678.760	0.0134573
678.838	0.0137589
678.916	0.0140416
678.994	0.0143710
679.072	0.0147694
679.150	0.0150179
679.228	0.0152432
679.307	0.0155960
679.385	0.0158498
679.463	0.0159646
679.541	0.0162386
679.619	0.0163262
679.697	0.0162297
679.775	0.0163227
679.853	0.0161366
679.932	0.0157008
680.010	0.0153946
680.088	0.0150918
680.166	0.0146294
680.244	0.0141355
680.322	0.0136551
680.400	0.0133212
680.478	0.0126328
680.557	0.0123750
680.635	0.0120436
680.713	0.0119024
680.791	0.0116756
680.869	0.0117469
680.947	0.0118276
681.025	0.0116491
681.103	0.0119492
681.182	0.0121667
681.260	0.0125741
681.338	0.0129724
681.416	0.0132034
681.494	0.0136187
681.572	0.0141165
681.650	0.0145300
681.728	0.0150688
681.807	0.0154819
681.885	0.0157725
681.963	0.0161544
682.041	0.0166234
682.119	0.0168907
682.197	0.0171774
682.275	0.0172846
682.353	0.0176109
682.432	0.0178657
682.510	0.0179164
682.588	0.0178918
682.666	0.0179008
682.744	0.0176822
682.822	0.0176387
682.900	0.0172800
682.978	0.0169456
683.057	0.0166943
683.135	0.0160209
683.213	0.0155444
683.291	0.0148998
683.369	0.0143481
683.447	0.0137296
683.525	0.0132902
683.603	0.0127445
683.682	0.0123476
683.760	0.0119212
683.838	0.0114994
683.916	0.0113865
683.994	0.0112026
684.072	0.0110206
684.150	0.0108175
684.228	0.0107532
684.307	0.0106940
684.385	0.0106366
684.463	0.0105359
684.541	0.0106747
684.619	0.0105894
684.697	0.0108076
684.775	0.0110094
684.853	0.0112386
684.932	0.0113405
685.010	0.0117628
685.088	0.0122354
685.166	0.0127122
685.244	0.0132703
685.322	0.0139620
685.400	0.0146587
685.478	0.0152762
685.557	0.0157069
685.635	0.0163712
685.713	0.0166712
685.791	0.0172108
685.869	0.0176402
685.947	0.0179387
686.025	0.0180751
686.103	0.0182698
686.182	0.0183827
686.260	0.0184489
686.338	0.0184406
686.416	0.0184439
686.494	0.0184424
686.572	0.0185171
686.650	0.0183467
686.728	0.0180994
686.807	0.0179869
686.885	0.0176630
686.963	0.0171474
687.041	0.0166830
687.119	0.0163221
687.197	0.0157162
687.275	0.0150514
687.353	0.0144054
687.432	0.0136351
687.510	0.0130067
687.588	0.0124345
687.666	0.0117184
687.744	0.0111758
687.822	0.0108321
687.900	0.0105534
687.978	0.0102904
688.057	0.0101902
688.135	0.0100710
688.213	0.0101268
688.291	0.0104084
688.369	0.0105862
688.447	0.0108482
688.525	0.0112376
688.603	0.0115482
688.682	0.0118558
688.760	0.0122001
688.838	0.0126398
688.916	0.0128123
688.994	0.0133384
689.072	0.0135252
689.150	0.0136705
689.228	0.0139462
689.307	0.0139758
689.385	0.0141427
689.463	0.0141891
689.541	0.0143623
689.619	0.0145840
689.697	0.0146067
689.775	0.0148009
689.853	0.0148547
689.932	0.0149841
690.010	0.0155048
690.088	0.0155037
690.166	0.0157428
690.244	0.0158906
690.322	0.0159657
690.400	0.0162858
690.478	0.0163617
690.557	0.0164465
690.635	0.0166412
690.713	0.0168670
690.791	0.0171235
690.869	0.0171737
690.947	0.0172049
691.025	0.0174146
691.103	0.0176471
691.182	0.0177900
691.260	0.0180209
691.338	0.0181373
691.416	0.0181926
691.494	0.0182478
691.572	0.0179451
691.650	0.0177393
691.728	0.0174011
691.807	0.0171548
691.885	0.0165427
691.963	0.0157294
692.041	0.0149841
692.119	0.0141454
692.197	0.0132174
692.275	0.0121867
692.353	0.0115319
692.432	0.0104832
692.510	0.00992859
692.588	0.00935188
692.666	0.00891365
692.744	0.00870567
692.822	0.00858604
692.900	0.00869766
692.978	0.00885811
693.057	0.00892181
693.135	0.00949013
693.213	0.0101113
693.291	0.0106986
693.369	0.0113303
693.447	0.0120300
693.525	0.0126854
693.603	0.0132568
693.682	0.0137801
693.760	0.0146201
693.838	0.0151042
693.916	0.0157737
693.994	0.0163024
694.072	0.0167670
694.150	0.0174382
694.228	0.0176824
694.307	0.0181438
694.385	0.0184178
694.463	0.0184451
694.541	0.0187209
694.619	0.0188335
694.697	0.0187453
694.775	0.0182966
694.853	0.0180083
694.932	0.0176212
695.010	0.0171067
695.088	0.0166272
695.166	0.0158388
695.244	0.0153782
695.322	0.0146651
695.400	0.0139886
695.478	0.0134710
695.557	0.0129024
695.635	0.0126701
695.713	0.0122701
695.791	0.0120592
695.869	0.0119050
695.947	0.0119855
696.025	0.0118668
696.103	0.0118718
696.182	0.0121629
696.260	0.0123395
696.338	0.0126155
696.416	0.0130016
696.494	0.0132265
696.572	0.0135744
696.650	0.0139219
696.728	0.0142737
696.807	0.0147249
696.885	0.0149783
696.963	0.0154276
697.041	0.0156087
697.119	0.0161281
697.197	0.0161941
697.275	0.0163800
697.353	0.0166312
697.432	0.0166552
697.510	0.0167889
697.588	0.0166019
697.666	0.0164662
697.744	0.0161181
697.822	0.0158035
697.900	0.0154614
697.978	0.0150383
698.057	0.0145227
698.135	0.0140038
698.213	0.0138365
698.291	0.0133746
698.369	0.0131196
698.447	0.0127667
698.525	0.0124747
698.603	0.0124197
698.682	0.0123993
698.760	0.0125206
698.838	0.0125724
698.916	0.0125311
698.994	0.0128627
699.072	0.0129475
699.150	0.0131390
699.228	0.0134364
699.307	0.0136294
699.385	0.0137552
699.463	0.0140656
699.541	0.0143222
699.619	0.0145262
699.697	0.0147623
699.775	0.0148154
699.853	0.0150038
699.932	0.0152034
700.010	0.0152809
700.088	0.0150662
700.166	0.0151985
700.244	0.0151241
700.322	0.0148937
700.400	0.0147340
700.478	0.0144552
700.557	0.0143543
700.635	0.0140134
700.713	0.0137505
700.791	0.0135465
700.869	0.0131840
700.947	0.0130969
701.025	0.0127435
701.103	0.0126249
701.182	0.0124305
701.260	0.0124059
701.338	0.0126372
701.416	0.0127822
701.494	0.0127573
701.572	0.0132220
701.650	0.0135468
701.728	0.0138783
701.807	0.0144908
701.885	0.0149582
701.963	0.0154140
702.041	0.0158992
702.119	0.0165414
702.197	0.0168089
702.275	0.0173499
702.353	0.0176470
702.432	0.0178822
702.510	0.0179324
702.588	0.0178658
702.666	0.0179749
702.744	0.0179301
702.822	0.0177251
702.900	0.0173937
702.978	0.0171634
703.057	0.0168954
703.135	0.0163721
703.213	0.0159060
703.291	0.0154942
703.369	0.0148135
703.447	0.0143731
703.525	0.0140372
703.603	0.0136279
703.682	0.0130228
703.760	0.0127433
703.838	0.0122598
703.916	0.0120409
703.994	0.0117678
704.072	0.0115761
704.150	0.0115517
704.228	0.0115305
704.307	0.0113976
704.385	0.0116384
704.463	0.0117317
704.541	0.0116389
704.619	0.0119166
704.697	0.0122268
704.775	0.0124277
704.853	0.0126935
704.932	0.0131181
705.010	0.0133858
705.088	0.0134514
705.166	0.0137157
705.244	0.0140200
705.322	0.0139807
705.400	0.0139497
705.478	0.0140829
705.557	0.0140327
705.635	0.0139966
705.713	0.0141101
705.791	0.0140456
705.869	0.0139613
705.947	0.0140991
706.025	0.0140251
706.103	0.0141288
706.182	0.0142574
706.260	0.0143014
706.338	0.0145697
706.416	0.0148010
706.494	0.0148923
706.572	0.0151090
706.650	0.0154020
706.728	0.0155851
706.807	0.0157064
706.885	0.0158381
706.963	0.0158829
707.041	0.0159077
707.119	0.0159190
707.197	0.0158236
707.275	0.0157080
707.353	0.0157201
707.432	0.0157696
707.510	0.0155756
707.588	0.0155174
707.666	0.0155697
707.744	0.0155875
707.822	0.0154236
707.900	0.0155429
707.978	0.0156250
708.057	0.0156075
708.135	0.0157589
708.213	0.0156990
708.291	0.0157779
708.369	0.0157174
708.447	0.0156366
708.525	0.0156464
708.603	0.0155840
708.682	0.0155546
708.760	0.0154371
708.838	0.0151937
708.916	0.0152271
708.994	0.0149282
709.072	0.0148831
709.150	0.0146346
709.228	0.0144189
709.307	0.0142046
709.385	0.0141407
709.463	0.0139342
709.541	0.0138377
709.619	0.0136536
709.697	0.0133784
709.775	0.0132420
709.853	0.0128930
709.932	0.0126711
710.010	0.0123402
710.088	0.0122032
710.166	0.0119095
710.244	0.0117533
710.322	0.0116171
710.400	0.0114812
710.478	0.0114491
710.557	0.0113947
710.635	0.0115485
710.713	0.0116870
710.791	0.0117873
710.869	0.0120066
710.947	0.0124013
711.025	0.0127361
711.103	0.0129546
711.182	0.0133627
711.260	0.0138733
711.338	0.0141862
711.416	0.0146016
711.494	0.0149303
711.572	0.0154360
711.650	0.0156811
711.728	0.0156966
711.807	0.0160359
711.885	0.0162483
711.963	0.0162753
712.041	0.0162785
712.119	0.0162417
712.197	0.0163094
712.275	0.0163010
712.353	0.0163612
712.432	0.0163680
712.510	0.0163464
712.588	0.0162991
712.666	0.0161961
712.744	0.0162209
712.822	0.0160346
712.900	0.0159420
712.978	0.0157510
713.057	0.0156269
713.135	0.0155106
713.213	0.0153614
713.291	0.0151754
713.369	0.0149755
713.447	0.0149290
713.525	0.0151537
713.603	0.0150160
713.682	0.0151368
713.760	0.0151251
713.838	0.0151588
713.916	0.0152216
713.994	0.0151933
714.072	0.0151265
714.150	0.0150338
714.228	0.0150135
714.307	0.0147827
714.385	0.0145945
714.463	0.0145381
714.541	0.0142730
714.619	0.0139981
714.697	0.0140746
714.775	0.0140729
714.853	0.0140568
714.932	0.0140008
715.010	0.0141211
715.088	0.0140958
715.166	0.0138712
715.244	0.0139339
715.322	0.0138802
715.400	0.0138123
715.478	0.0137778
715.557	0.0135840
715.635	0.0135312
715.713	0.0132029
715.791	0.0129090
715.869	0.0127743
715.947	0.0126376
716.025	0.0125957
716.103	0.0123862
716.182	0.0123579
716.260	0.0124500
716.338	0.0124097
716.416	0.0124474
716.494	0.0125997
716.572	0.0127637
716.650	0.0130358
716.728	0.0132513
716.807	0.0134463
716.885	0.0139240
716.963	0.0142734
717.041	0.0144965
717.119	0.0149042
717.197	0.0151385
717.275	0.0153272
717.353	0.0154780
717.432	0.0157531
717.510	0.0157288
717.588	0.0158610
717.666	0.0160161
717.744	0.0158720
717.822	0.0158818
717.900	0.0157971
717.978	0.0157917
718.057	0.0156596
718.135	0.0156114
718.213	0.0155526
718.291	0.0154743
718.369	0.0154131
718.447	0.0155754
718.525	0.0153215
718.603	0.0154188
718.682	0.0153624
718.760	0.0154600
718.838	0.0154646
718.916	0.0154668
718.994	0.0154013
719.072	0.0154080
719.150	0.0153058
719.228	0.0151275
719.307	0.0151563
719.385	0.0149155
719.463	0.0148829
719.541	0.0146941
719.619	0.0145201
719.697	0.0144608
719.775	0.0143687
719.853	0.0142682
719.932	0.0142088
720.010	0.0141093
720.088	0.0140028
720.166	0.0139499
720.244	0.0140079
720.322	0.0138773
720.400	0.0137017
720.478	0.0136913
720.557	0.0136710
720.635	0.0137023
720.713	0.0137180
720.791	0.0136662
720.869	0.0137199
720.947	0.0135566
721.025	0.0135839
721.103	0.0136729
721.182	0.0135768
721.260	0.0135043
721.338	0.0135717
721.416	0.0135992
721.494	0.0135950
721.572	0.0136707
721.650	0.0136566
721.728	0.0139206
721.807	0.0137852
721.885	0.0139468
721.963	0.0139935
722.041	0.0139223
722.119	0.0140360
722.197	0.0140205
722.275	0.0142393
722.353	0.0141365
722.432	0.0139187
722.510	0.0139169
722.588	0.0141137
722.666	0.0138826
722.744	0.0138396
722.822	0.0139474
722.900	0.0138832
722.978	0.0139539
723.057	0.0138963
723.135	0.0141059
723.213	0.0140415
723.291	0.0143145
723.369	0.0143060
723.447	0.0142900
723.525	0.0144901
723.603	0.0145747
723.682	0.0147039
723.760	0.0146486
723.838	0.0147479
723.916	0.0147676
723.994	0.0147497
724.072	0.0147881
724.150	0.0148304
724.228	0.0149712
724.307	0.0148537
724.385	0.0148287
724.463	0.0148402
724.541	0.0149882
724.619	0.0147801
724.697	0.0146825
724.775	0.0148829
724.853	0.0146825
724.932	0.0145086
725.010	0.0146589
725.088	0.0145986
725.166	0.0145668
725.244	0.0146404
725.322	0.0144559
725.400	0.0142540
725.478	0.0143977
725.557	0.0143585
725.635	0.0143050
725.713	0.0143244
725.791	0.0142509
725.869	0.0144106
725.947	0.0142201
726.025	0.0142876
726.103	0.0142664
726.182	0.0142951
726.260	0.0143100
726.338	0.0142972
726.416	0.0143020
726.494	0.0144431
726.572	0.0143210
726.650	0.0145374
726.728	0.0147015
726.807	0.0145657
726.885	0.0145370
726.963	0.0144790
727.041	0.0143800
727.119	0.0146642
727.197	0.0145349
727.275	0.0144521
727.353	0.0144585
727.432	0.0143121
727.510	0.0143383
727.588	0.0142451
727.666	0.0141719
727.744	0.0140066
727.822	0.0140176
727.900	0.0139008
727.978	0.0137127
728.057	0.0138342
728.135	0.0137094
728.213	0.0136487
728.291	0.0136621
728.369	0.0136066
728.447	0.0135192
728.525	0.0137011
728.603	0.0136389
728.682	0.0137903
728.760	0.0136903
728.838	0.0137305
728.916	0.0139401
728.994	0.0140521
729.072	0.0141480
729.150	0.0140065
729.228	0.0140820
729.307	0.0142136
729.385	0.0141707
729.463	0.0141931
729.541	0.0141969
729.619	0.0142668
729.697	0.0143365
729.775	0.0142995
729.853	0.0142820
729.932	0.0143889
730.010	0.0144938
730.088	0.0145983
730.166	0.0147234
730.244	0.0146687
730.322	0.0146433
730.400	0.0147982
730.478	0.0149617
730.557	0.0148767
730.635	0.0149464
730.713	0.0150804
730.791	0.0149495
730.869	0.0149838
730.947	0.0150974
731.025	0.0149992
731.103	0.0149147
731.182	0.0149662
731.260	0.0149586
731.338	0.0147845
731.416	0.0147919
731.494	0.0145805
731.572	0.0145766
731.650	0.0145777
731.728	0.0145046
731.807	0.0143925
731.885	0.0142021
731.963	0.0142769
732.041	0.0141808
732.119	0.0141230
732.197	0.0141262
732.275	0.0140951
732.353	0.0143200
732.432	0.0142867
732.510	0.0141164
732.588	0.0141988
732.666	0.0143616
732.744	0.0143240
732.822	0.0141932
732.900	0.0142384
732.978	0.0143821
733.057	0.0142194
733.135	0.0142904
733.213	0.0142879
733.291	0.0143207
733.369	0.0142925
733.447	0.0142719
733.525	0.0143293
733.603	0.0142671
733.682	0.0145141
733.760	0.0145811
733.838	0.0145596
733.916	0.0145748
733.994	0.0146197
734.072	0.0148163
734.150	0.0148019
734.228	0.0147701
734.307	0.0148058
734.385	0.0148328
734.463	0.0146799
734.541	0.0146384
734.619	0.0146716
734.697	0.0146666
734.775	0.0146372
734.853	0.0144192
734.932	0.0143990
735.010	0.0143626
735.088	0.0141122
735.166	0.0143074
735.244	0.0141751
735.322	0.0141028
735.400	0.0140680
735.478	0.0140603
735.557	0.0140618
735.635	0.0139776
735.713	0.0140749
