05/14/2022	19:28:05	Ver.	4.1	UNKNOWN
Optical Delay	650.009681	Delta X		0.078125	Sweeps	1	Scan Rate	0/0
Coordinates	Axis 1	NaN	Axis 2	NaN	Axis 3	NaN	Axis 4	NaN	Axis 5	NaN	Axis 6	0.000000
TX Power	0.000000	RX Power	0.000000

650.010	0.0141353
650.088	0.0142955
650.166	0.0143427
650.244	0.0142413
650.322	0.0142548
650.400	0.0143192
650.478	0.0142192
650.557	0.0143974
650.635	0.0142986
650.713	0.0143339
650.791	0.0142314
650.869	0.0141904
650.947	0.0143194
651.025	0.0144041
651.103	0.0143889
651.182	0.0143217
651.260	0.0142968
651.338	0.0142809
651.416	0.0142430
651.494	0.0144003
651.572	0.0144596
651.650	0.0144153
651.728	0.0142993
651.807	0.0143214
651.885	0.0142890
651.963	0.0141818
652.041	0.0143529
652.119	0.0143951
652.197	0.0143163
652.275	0.0142902
652.353	0.0141624
652.432	0.0143330
652.510	0.0141929
652.588	0.0142925
652.666	0.0143568
652.744	0.0142475
652.822	0.0141764
652.900	0.0141290
652.978	0.0142273
653.057	0.0141272
653.135	0.0141180
653.213	0.0142138
653.291	0.0141418
653.369	0.0142140
653.447	0.0141962
653.525	0.0143561
653.603	0.0142825
653.682	0.0142026
653.760	0.0142083
653.838	0.0142150
653.916	0.0142986
653.994	0.0143177
654.072	0.0142910
654.150	0.0143562
654.228	0.0142255
654.307	0.0142268
654.385	0.0143047
654.463	0.0142532
654.541	0.0142083
654.619	0.0143295
654.697	0.0144000
654.775	0.0143587
654.853	0.0142638
654.932	0.0143449
655.010	0.0142570
655.088	0.0142063
655.166	0.0142766
655.244	0.0143427
655.322	0.0143050
655.400	0.0142072
655.478	0.0141565
655.557	0.0143739
655.635	0.0144043
655.713	0.0143938
655.791	0.0142477
655.869	0.0143753
655.947	0.0143792
656.025	0.0143043
656.103	0.0143955
656.182	0.0143016
656.260	0.0144038
656.338	0.0143282
656.416	0.0141840
656.494	0.0143364
656.572	0.0142552
656.650	0.0143211
656.728	0.0141730
656.807	0.0143739
656.885	0.0142923
656.963	0.0142744
657.041	0.0142424
657.119	0.0141544
657.197	0.0143030
657.275	0.0141671
657.353	0.0141983
657.432	0.0142024
657.510	0.0142178
657.588	0.0142530
657.666	0.0141497
657.744	0.0142301
657.822	0.0140911
657.900	0.0142049
657.978	0.0142541
658.057	0.0142037
658.135	0.0143443
658.213	0.0141755
658.291	0.0143373
658.369	0.0142229
658.447	0.0141746
658.525	0.0142719
658.603	0.0142676
658.682	0.0142426
658.760	0.0142273
658.838	0.0141495
658.916	0.0143189
658.994	0.0142900
659.072	0.0142195
659.150	0.0142076
659.228	0.0142506
659.307	0.0142642
659.385	0.0142240
659.463	0.0143150
659.541	0.0143008
659.619	0.0142825
659.697	0.0143661
659.775	0.0141299
659.853	0.0142391
659.932	0.0143689
660.010	0.0142334
660.088	0.0144221
660.166	0.0143181
660.244	0.0143333
660.322	0.0142937
660.400	0.0142707
660.478	0.0141778
660.557	0.0142573
660.635	0.0143440
660.713	0.0141766
660.791	0.0143423
660.869	0.0142855
660.947	0.0141570
661.025	0.0142232
661.103	0.0142993
661.182	0.0142600
661.260	0.0142861
661.338	0.0143182
661.416	0.0141394
661.494	0.0141236
661.572	0.0142477
661.650	0.0141863
661.728	0.0142641
661.807	0.0142185
661.885	0.0142354
661.963	0.0142589
662.041	0.0142712
662.119	0.0141621
662.197	0.0141639
662.275	0.0141766
662.353	0.0141422
662.432	0.0142236
662.510	0.0142074
662.588	0.0142185
662.666	0.0141518
662.744	0.0142933
662.822	0.0142203
662.900	0.0141356
662.978	0.0140694
663.057	0.0140935
663.135	0.0141980
663.213	0.0141085
663.291	0.0141042
663.369	0.0142082
663.447	0.0141566
663.525	0.0142191
663.603	0.0142750
663.682	0.0140897
663.760	0.0142368
663.838	0.0142163
663.916	0.0142315
663.994	0.0143102
664.072	0.0143040
664.150	0.0142741
664.228	0.0142864
664.307	0.0143159
664.385	0.0142538
664.463	0.0142123
664.541	0.0142864
664.619	0.0142661
664.697	0.0144138
664.775	0.0142155
664.853	0.0142412
664.932	0.0143566
665.010	0.0142499
665.088	0.0142346
665.166	0.0143401
665.244	0.0141767
665.322	0.0142361
665.400	0.0143059
665.478	0.0142751
665.557	0.0141815
665.635	0.0142030
665.713	0.0141553
665.791	0.0141820
665.869	0.0141156
665.947	0.0141120
666.025	0.0140724
666.103	0.0140308
666.182	0.0140190
666.260	0.0139751
666.338	0.0140639
666.416	0.0141039
666.494	0.0140993
666.572	0.0139644
666.650	0.0141019
666.728	0.0141703
666.807	0.0141545
666.885	0.0141497
666.963	0.0144324
667.041	0.0143330
667.119	0.0144382
667.197	0.0145740
667.275	0.0146102
667.353	0.0145712
667.432	0.0145619
667.510	0.0146812
667.588	0.0146358
667.666	0.0145432
667.744	0.0145939
667.822	0.0143784
667.900	0.0144191
667.978	0.0141692
668.057	0.0141792
668.135	0.0140409
668.213	0.0139326
668.291	0.0137514
668.369	0.0136231
668.447	0.0136320
668.525	0.0134969
668.603	0.0134602
668.682	0.0135651
668.760	0.0134042
668.838	0.0136497
668.916	0.0137079
668.994	0.0137798
669.072	0.0137960
669.150	0.0140891
669.228	0.0143493
669.307	0.0144211
669.385	0.0147938
669.463	0.0148116
669.541	0.0150922
669.619	0.0153300
669.697	0.0155530
669.775	0.0155734
669.853	0.0155916
669.932	0.0155520
670.010	0.0155402
670.088	0.0154289
670.166	0.0153384
670.244	0.0151468
670.322	0.0149494
670.400	0.0145470
670.478	0.0141419
670.557	0.0140243
670.635	0.0135116
670.713	0.0132409
670.791	0.0128487
670.869	0.0124825
670.947	0.0123049
671.025	0.0121837
671.103	0.0120535
671.182	0.0121085
671.260	0.0121674
671.338	0.0123210
671.416	0.0125468
671.494	0.0128146
671.572	0.0132939
671.650	0.0135838
671.728	0.0139542
671.807	0.0144012
671.885	0.0148345
671.963	0.0153262
672.041	0.0158188
672.119	0.0161591
672.197	0.0164329
672.275	0.0167521
672.353	0.0168710
672.432	0.0170721
672.510	0.0171085
672.588	0.0172131
672.666	0.0168530
672.744	0.0164780
672.822	0.0162594
672.900	0.0159367
672.978	0.0155722
673.057	0.0151965
673.135	0.0146815
673.213	0.0140495
673.291	0.0137013
673.369	0.0133063
673.447	0.0128175
673.525	0.0123601
673.603	0.0121271
673.682	0.0117941
673.760	0.0116271
673.838	0.0117256
673.916	0.0115760
673.994	0.0115262
674.072	0.0116112
674.150	0.0120681
674.228	0.0122470
674.307	0.0125443
674.385	0.0128227
674.463	0.0132362
674.541	0.0135645
674.619	0.0139925
674.697	0.0144503
674.775	0.0147417
674.853	0.0151452
674.932	0.0154533
675.010	0.0157819
675.088	0.0160076
675.166	0.0162940
675.244	0.0166396
675.322	0.0166303
675.400	0.0167144
675.478	0.0168119
675.557	0.0167118
675.635	0.0165986
675.713	0.0166201
675.791	0.0161633
675.869	0.0159433
675.947	0.0158454
676.025	0.0152855
676.103	0.0150438
676.182	0.0147083
676.260	0.0144659
676.338	0.0141322
676.416	0.0138087
676.494	0.0133961
676.572	0.0131656
676.650	0.0128728
676.728	0.0124954
676.807	0.0123585
676.885	0.0122596
676.963	0.0121345
677.041	0.0120162
677.119	0.0120462
677.197	0.0121849
677.275	0.0123115
677.353	0.0125140
677.432	0.0128371
677.510	0.0132359
677.588	0.0136713
677.666	0.0141479
677.744	0.0144419
677.822	0.0146415
677.900	0.0151357
677.978	0.0154218
678.057	0.0156262
678.135	0.0157541
678.213	0.0158765
678.291	0.0159173
678.369	0.0159544
678.447	0.0158475
678.525	0.0157371
678.603	0.0156151
678.682	0.0155286
678.760	0.0152740
678.838	0.0149834
678.916	0.0147361
678.994	0.0143959
679.072	0.0141400
679.150	0.0136961
679.228	0.0133937
679.307	0.0131331
679.385	0.0128600
679.463	0.0126580
679.541	0.0124323
679.619	0.0122041
679.697	0.0121947
679.775	0.0122771
679.853	0.0123158
679.932	0.0124055
680.010	0.0125072
680.088	0.0129852
680.166	0.0132396
680.244	0.0135223
680.322	0.0140372
680.400	0.0144661
680.478	0.0148963
680.557	0.0152139
680.635	0.0154985
680.713	0.0157619
680.791	0.0162320
680.869	0.0165852
680.947	0.0166801
681.025	0.0168659
681.103	0.0170367
681.182	0.0169589
681.260	0.0169683
681.338	0.0167297
681.416	0.0163484
681.494	0.0161903
681.572	0.0160574
681.650	0.0155970
681.728	0.0151350
681.807	0.0148219
681.885	0.0144679
681.963	0.0141547
682.041	0.0136676
682.119	0.0134426
682.197	0.0133659
682.275	0.0130100
682.353	0.0127418
682.432	0.0124789
682.510	0.0122610
682.588	0.0120972
682.666	0.0119808
682.744	0.0119054
682.822	0.0116250
682.900	0.0115916
682.978	0.0117117
683.057	0.0116105
683.135	0.0115365
683.213	0.0117075
683.291	0.0118367
683.369	0.0118168
683.447	0.0118885
683.525	0.0122649
683.603	0.0125922
683.682	0.0126284
683.760	0.0129277
683.838	0.0134878
683.916	0.0137906
683.994	0.0140813
684.072	0.0146445
684.150	0.0147612
684.228	0.0151450
684.307	0.0155231
684.385	0.0159264
684.463	0.0162167
684.541	0.0164763
684.619	0.0169267
684.697	0.0172176
684.775	0.0174140
684.853	0.0175948
684.932	0.0179244
685.010	0.0179088
685.088	0.0180668
685.166	0.0180109
685.244	0.0179786
685.322	0.0180013
685.400	0.0176614
685.478	0.0174749
685.557	0.0172053
685.635	0.0167638
685.713	0.0165237
685.791	0.0159401
685.869	0.0154308
685.947	0.0149199
686.025	0.0144374
686.103	0.0138680
686.182	0.0134947
686.260	0.0128780
686.338	0.0124969
686.416	0.0121894
686.494	0.0119358
686.572	0.0115518
686.650	0.0113531
686.728	0.0111842
686.807	0.0111186
686.885	0.0108881
686.963	0.0107251
687.041	0.0107556
687.119	0.0107799
687.197	0.0106759
687.275	0.0105096
687.353	0.0105946
687.432	0.0107751
687.510	0.0109280
687.588	0.0110877
687.666	0.0114342
687.744	0.0115540
687.822	0.0118133
687.900	0.0120564
687.978	0.0125069
688.057	0.0129179
688.135	0.0134457
688.213	0.0138567
688.291	0.0145058
688.369	0.0148503
688.447	0.0154911
688.525	0.0160128
688.603	0.0165671
688.682	0.0170024
688.760	0.0175793
688.838	0.0180145
688.916	0.0183953
688.994	0.0186652
689.072	0.0187983
689.150	0.0190072
689.228	0.0190967
689.307	0.0189346
689.385	0.0186891
689.463	0.0185442
689.541	0.0182638
689.619	0.0178458
689.697	0.0174304
689.775	0.0170396
689.853	0.0166489
689.932	0.0161549
690.010	0.0157584
690.088	0.0154890
690.166	0.0150330
690.244	0.0145477
690.322	0.0141940
690.400	0.0139111
690.478	0.0134428
690.557	0.0130656
690.635	0.0127322
690.713	0.0123093
690.791	0.0120972
690.869	0.0117285
690.947	0.0114311
691.025	0.0112978
691.103	0.0113004
691.182	0.0113158
691.260	0.0114304
691.338	0.0115122
691.416	0.0118465
691.494	0.0119962
691.572	0.0122726
691.650	0.0124916
691.728	0.0126209
691.807	0.0127134
691.885	0.0128938
691.963	0.0130334
692.041	0.0126630
692.119	0.0125477
692.197	0.0124555
692.275	0.0120892
692.353	0.0121326
692.432	0.0120697
692.510	0.0118675
692.588	0.0119035
692.666	0.0119973
692.744	0.0121006
692.822	0.0124541
692.900	0.0128326
692.978	0.0131389
693.057	0.0134399
693.135	0.0141273
693.213	0.0146162
693.291	0.0152591
693.369	0.0158173
693.447	0.0163826
693.525	0.0169572
693.603	0.0173129
693.682	0.0178038
693.760	0.0180287
693.838	0.0184274
693.916	0.0185905
693.994	0.0185826
694.072	0.0187536
694.150	0.0187221
694.228	0.0185921
694.307	0.0185088
694.385	0.0183889
694.463	0.0180514
694.541	0.0175205
694.619	0.0172895
694.697	0.0166183
694.775	0.0161781
694.853	0.0156764
694.932	0.0150951
695.010	0.0143723
695.088	0.0137473
695.166	0.0134716
695.244	0.0129493
695.322	0.0125866
695.400	0.0121326
695.478	0.0116491
695.557	0.0114632
695.635	0.0112875
695.713	0.0110644
695.791	0.0108978
695.869	0.0107388
695.947	0.0107126
696.025	0.0106758
696.103	0.0108949
696.182	0.0110860
696.260	0.0112966
696.338	0.0115724
696.416	0.0117905
696.494	0.0122423
696.572	0.0126443
696.650	0.0131703
696.728	0.0136835
696.807	0.0141521
696.885	0.0146054
696.963	0.0150144
697.041	0.0154519
697.119	0.0158108
697.197	0.0159486
697.275	0.0161397
697.353	0.0161776
697.432	0.0163705
697.510	0.0163311
697.588	0.0162320
697.666	0.0160435
697.744	0.0158310
697.822	0.0156831
697.900	0.0153642
697.978	0.0150665
698.057	0.0149380
698.135	0.0145669
698.213	0.0142551
698.291	0.0139862
698.369	0.0136599
698.447	0.0134151
698.525	0.0132439
698.603	0.0130997
698.682	0.0129153
698.760	0.0130608
698.838	0.0129076
698.916	0.0131569
698.994	0.0132946
699.072	0.0134505
699.150	0.0137576
699.228	0.0138244
699.307	0.0143897
699.385	0.0143694
699.463	0.0146518
699.541	0.0150125
699.619	0.0151526
699.697	0.0153178
699.775	0.0155589
699.853	0.0156640
699.932	0.0156136
700.010	0.0159394
700.088	0.0159908
700.166	0.0158198
700.244	0.0158421
700.322	0.0159286
700.400	0.0156682
700.478	0.0155559
700.557	0.0154597
700.635	0.0154237
700.713	0.0151904
700.791	0.0150450
700.869	0.0149316
700.947	0.0148205
701.025	0.0146744
701.103	0.0144695
701.182	0.0141353
701.260	0.0139632
701.338	0.0138773
701.416	0.0137592
701.494	0.0135941
701.572	0.0134015
701.650	0.0133971
701.728	0.0133581
701.807	0.0131509
701.885	0.0129543
701.963	0.0129399
702.041	0.0129798
702.119	0.0126855
702.197	0.0127708
702.275	0.0129005
702.353	0.0129176
702.432	0.0127884
702.510	0.0130527
702.588	0.0132030
702.666	0.0133150
702.744	0.0134846
702.822	0.0135159
702.900	0.0135980
702.978	0.0139346
703.057	0.0139761
703.135	0.0140226
703.213	0.0141868
703.291	0.0143433
703.369	0.0142980
703.447	0.0142264
703.525	0.0143707
703.603	0.0144970
703.682	0.0144021
703.760	0.0145030
703.838	0.0144268
703.916	0.0143768
703.994	0.0144003
704.072	0.0143575
704.150	0.0143636
704.228	0.0143661
704.307	0.0142902
704.385	0.0143423
704.463	0.0143007
704.541	0.0141571
704.619	0.0142175
704.697	0.0143356
704.775	0.0142672
704.853	0.0142976
704.932	0.0143610
705.010	0.0142754
705.088	0.0141389
705.166	0.0140398
705.244	0.0141972
705.322	0.0139180
705.400	0.0138801
705.478	0.0140060
705.557	0.0139165
705.635	0.0139590
705.713	0.0139869
705.791	0.0140569
705.869	0.0141051
705.947	0.0143085
706.025	0.0143835
706.103	0.0147807
706.182	0.0151041
706.260	0.0153468
706.338	0.0153979
706.416	0.0156537
706.494	0.0160090
706.572	0.0160959
706.650	0.0162144
706.728	0.0162798
706.807	0.0160645
706.885	0.0161148
706.963	0.0158121
707.041	0.0158419
707.119	0.0155593
707.197	0.0152879
707.275	0.0148969
707.353	0.0145590
707.432	0.0144041
707.510	0.0141042
707.588	0.0137231
707.666	0.0136423
707.744	0.0132079
707.822	0.0131546
707.900	0.0129173
707.978	0.0125971
708.057	0.0125203
708.135	0.0123949
708.213	0.0122929
708.291	0.0121373
708.369	0.0122578
708.447	0.0123712
708.525	0.0123404
708.603	0.0123624
708.682	0.0125029
708.760	0.0127582
708.838	0.0129097
708.916	0.0132787
708.994	0.0133019
709.072	0.0134768
709.150	0.0137389
709.228	0.0137189
709.307	0.0139444
709.385	0.0141287
709.463	0.0142490
709.541	0.0142537
709.619	0.0142284
709.697	0.0143224
709.775	0.0141348
709.853	0.0141148
709.932	0.0141472
710.010	0.0141161
710.088	0.0142043
710.166	0.0142025
710.244	0.0140311
710.322	0.0140848
710.400	0.0141709
710.478	0.0143726
710.557	0.0143788
710.635	0.0144841
710.713	0.0144727
710.791	0.0147189
710.869	0.0148571
710.947	0.0148167
711.025	0.0149226
711.103	0.0148875
711.182	0.0149113
711.260	0.0149244
711.338	0.0149068
711.416	0.0148609
711.494	0.0149134
711.572	0.0147921
711.650	0.0149104
711.728	0.0148282
711.807	0.0148468
711.885	0.0149415
711.963	0.0149844
712.041	0.0150767
712.119	0.0150779
712.197	0.0152760
712.275	0.0152950
712.353	0.0152757
712.432	0.0152148
712.510	0.0151248
712.588	0.0149197
712.666	0.0150038
712.744	0.0149144
712.822	0.0147702
712.900	0.0146449
712.978	0.0146369
713.057	0.0145131
713.135	0.0142446
713.213	0.0141710
713.291	0.0142997
713.369	0.0141359
713.447	0.0140520
713.525	0.0139445
713.603	0.0140574
713.682	0.0139076
713.760	0.0139287
713.838	0.0138712
713.916	0.0137203
713.994	0.0138989
714.072	0.0138697
714.150	0.0137039
714.228	0.0136160
714.307	0.0135777
714.385	0.0136211
714.463	0.0135040
714.541	0.0131486
714.619	0.0131058
714.697	0.0129301
714.775	0.0128380
714.853	0.0127540
714.932	0.0125107
715.010	0.0123277
715.088	0.0125606
715.166	0.0123743
715.244	0.0123341
715.322	0.0122991
715.400	0.0123422
715.478	0.0125337
715.557	0.0124805
715.635	0.0126869
715.713	0.0130284
715.791	0.0131165
715.869	0.0134626
715.947	0.0137260
716.025	0.0141293
716.103	0.0144677
716.182	0.0144516
716.260	0.0148363
716.338	0.0150515
716.416	0.0151410
716.494	0.0153750
716.572	0.0154973
716.650	0.0155644
716.728	0.0155430
716.807	0.0156393
716.885	0.0154477
716.963	0.0156762
717.041	0.0158888
717.119	0.0157159
717.197	0.0159386
717.275	0.0157481
717.353	0.0158414
717.432	0.0159947
717.510	0.0158797
717.588	0.0157839
717.666	0.0156730
717.744	0.0157523
717.822	0.0156667
717.900	0.0154633
717.978	0.0154610
718.057	0.0153977
718.135	0.0152813
718.213	0.0150849
718.291	0.0152398
718.369	0.0150026
718.447	0.0149200
718.525	0.0148801
718.603	0.0149893
718.682	0.0149778
718.760	0.0146935
718.838	0.0145959
718.916	0.0146770
718.994	0.0144640
719.072	0.0144545
719.150	0.0143020
719.228	0.0140929
719.307	0.0140105
719.385	0.0139938
719.463	0.0139208
719.541	0.0136728
719.619	0.0135499
719.697	0.0135236
719.775	0.0134771
719.853	0.0132967
719.932	0.0132153
720.010	0.0131513
720.088	0.0132269
720.166	0.0131414
720.244	0.0130170
720.322	0.0128841
720.400	0.0129156
720.478	0.0128190
720.557	0.0129060
720.635	0.0127190
720.713	0.0126093
720.791	0.0125420
720.869	0.0127766
720.947	0.0128861
721.025	0.0128517
721.103	0.0128844
721.182	0.0129176
721.260	0.0131187
721.338	0.0133784
721.416	0.0134406
721.494	0.0136307
721.572	0.0139732
721.650	0.0140372
721.728	0.0143933
721.807	0.0144083
721.885	0.0146189
721.963	0.0149577
722.041	0.0151378
722.119	0.0151590
722.197	0.0151676
722.275	0.0155042
722.353	0.0153909
722.432	0.0155324
722.510	0.0155792
722.588	0.0155776
722.666	0.0155355
722.744	0.0155471
722.822	0.0156290
722.900	0.0156111
722.978	0.0155382
723.057	0.0154586
723.135	0.0153097
723.213	0.0152808
723.291	0.0152044
723.369	0.0152333
723.447	0.0151957
723.525	0.0151244
723.603	0.0151724
723.682	0.0150475
723.760	0.0149146
723.838	0.0149358
723.916	0.0149356
723.994	0.0148592
724.072	0.0146973
724.150	0.0144595
724.228	0.0146568
724.307	0.0143941
724.385	0.0142493
724.463	0.0142205
724.541	0.0141673
724.619	0.0139912
724.697	0.0138586
724.775	0.0137485
724.853	0.0136346
724.932	0.0136860
725.010	0.0136653
725.088	0.0135114
725.166	0.0134305
725.244	0.0133587
725.322	0.0134351
725.400	0.0134532
725.478	0.0134533
725.557	0.0135336
725.635	0.0136562
725.713	0.0136427
725.791	0.0136424
725.869	0.0136773
725.947	0.0138237
726.025	0.0139204
726.103	0.0138242
726.182	0.0138774
726.260	0.0140484
726.338	0.0139258
726.416	0.0139113
726.494	0.0139243
726.572	0.0138270
726.650	0.0139744
726.728	0.0140512
726.807	0.0140807
726.885	0.0139729
726.963	0.0140321
727.041	0.0140027
727.119	0.0139704
727.197	0.0139586
727.275	0.0139175
727.353	0.0138450
727.432	0.0137301
727.510	0.0138030
727.588	0.0140382
727.666	0.0137741
727.744	0.0138304
727.822	0.0140127
727.900	0.0139621
727.978	0.0141790
728.057	0.0143198
728.135	0.0142473
728.213	0.0143126
728.291	0.0145190
728.369	0.0147175
728.447	0.0147065
728.525	0.0145483
728.603	0.0146476
728.682	0.0147507
728.760	0.0147079
728.838	0.0148539
728.916	0.0147698
728.994	0.0147467
729.072	0.0147384
729.150	0.0147098
729.228	0.0147698
729.307	0.0147524
729.385	0.0146876
729.463	0.0148030
729.541	0.0148933
729.619	0.0148492
729.697	0.0147644
729.775	0.0147647
729.853	0.0148206
729.932	0.0148255
730.010	0.0148650
730.088	0.0147782
730.166	0.0147401
730.244	0.0148119
730.322	0.0147186
730.400	0.0145477
730.478	0.0144122
730.557	0.0143935
730.635	0.0142919
730.713	0.0142532
730.791	0.0143284
730.869	0.0141599
730.947	0.0139530
731.025	0.0139648
731.103	0.0138027
731.182	0.0138081
731.260	0.0136922
731.338	0.0136062
731.416	0.0137132
731.494	0.0136577
731.572	0.0135713
731.650	0.0135902
731.728	0.0136950
731.807	0.0136090
731.885	0.0137040
731.963	0.0137239
732.041	0.0137952
732.119	0.0138248
732.197	0.0137994
732.275	0.0139133
732.353	0.0140202
732.432	0.0140013
732.510	0.0139500
732.588	0.0139038
732.666	0.0140587
732.744	0.0139461
732.822	0.0140890
732.900	0.0141197
732.978	0.0139352
733.057	0.0138763
733.135	0.0138885
733.213	0.0139828
733.291	0.0139848
733.369	0.0138867
733.447	0.0140009
733.525	0.0140115
733.603	0.0140224
733.682	0.0141104
733.760	0.0141101
733.838	0.0141548
733.916	0.0140574
733.994	0.0140751
734.072	0.0140468
734.150	0.0141988
734.228	0.0142796
734.307	0.0141322
734.385	0.0142963
734.463	0.0141883
734.541	0.0142887
734.619	0.0141269
734.697	0.0141847
734.775	0.0143462
734.853	0.0144670
734.932	0.0144409
735.010	0.0145342
735.088	0.0146201
735.166	0.0144817
735.244	0.0145324
735.322	0.0145181
735.400	0.0145291
735.478	0.0145629
735.557	0.0146212
735.635	0.0145652
735.713	0.0145891
