05/14/2022	19:28:15	Ver.	4.1	UNKNOWN
Optical Delay	650.009681	Delta X		0.078125	Sweeps	1	Scan Rate	0/0
Coordinates	Axis 1	NaN	Axis 2	NaN	Axis 3	NaN	Axis 4	NaN	Axis 5	NaN	Axis 6	0.000000
TX Power	0.000000	RX Power	0.000000

650.010	0.0146647
650.088	0.0146428
650.166	0.0146615
650.244	0.0146410
650.322	0.0147100
650.400	0.0146392
650.478	0.0146600
650.557	0.0147236
650.635	0.0148757
650.713	0.0146535
650.791	0.0146685
650.869	0.0147409
650.947	0.0148383
651.025	0.0147726
651.103	0.0146700
651.182	0.0146593
651.260	0.0146960
651.338	0.0147363
651.416	0.0146692
651.494	0.0146336
651.572	0.0146661
651.650	0.0146320
651.728	0.0147475
651.807	0.0146014
651.885	0.0146605
651.963	0.0147336
652.041	0.0147377
652.119	0.0147128
652.197	0.0146700
652.275	0.0146058
652.353	0.0146484
652.432	0.0148664
652.510	0.0146984
652.588	0.0145942
652.666	0.0146458
652.744	0.0145886
652.822	0.0147143
652.900	0.0145998
652.978	0.0146403
653.057	0.0146024
653.135	0.0146130
653.213	0.0146751
653.291	0.0146568
653.369	0.0147825
653.447	0.0146642
653.525	0.0146761
653.603	0.0147009
653.682	0.0147495
653.760	0.0146175
653.838	0.0145982
653.916	0.0144612
653.994	0.0146220
654.072	0.0146247
654.150	0.0145879
654.228	0.0145967
654.307	0.0148061
654.385	0.0145189
654.463	0.0147179
654.541	0.0147565
654.619	0.0146823
654.697	0.0146606
654.775	0.0147524
654.853	0.0146091
654.932	0.0147110
655.010	0.0147555
655.088	0.0146909
655.166	0.0147781
655.244	0.0147444
655.322	0.0147981
655.400	0.0146245
655.478	0.0147441
655.557	0.0147005
655.635	0.0147169
655.713	0.0146753
655.791	0.0148167
655.869	0.0147611
655.947	0.0146404
656.025	0.0146089
656.103	0.0147838
656.182	0.0148511
656.260	0.0146517
656.338	0.0148148
656.416	0.0146688
656.494	0.0147404
656.572	0.0147793
656.650	0.0146860
656.728	0.0146959
656.807	0.0147104
656.885	0.0147155
656.963	0.0147667
657.041	0.0146730
657.119	0.0145412
657.197	0.0146525
657.275	0.0147361
657.353	0.0145565
657.432	0.0146416
657.510	0.0146117
657.588	0.0146690
657.666	0.0146017
657.744	0.0147449
657.822	0.0146007
657.900	0.0145936
657.978	0.0146111
658.057	0.0145084
658.135	0.0145582
658.213	0.0147031
658.291	0.0146633
658.369	0.0144482
658.447	0.0144627
658.525	0.0144769
658.603	0.0147228
658.682	0.0147213
658.760	0.0145719
658.838	0.0147954
658.916	0.0147481
658.994	0.0146794
659.072	0.0147159
659.150	0.0145623
659.228	0.0146616
659.307	0.0146426
659.385	0.0147167
659.463	0.0146748
659.541	0.0146906
659.619	0.0145958
659.697	0.0146980
659.775	0.0146763
659.853	0.0146638
659.932	0.0145472
660.010	0.0145499
660.088	0.0147551
660.166	0.0146670
660.244	0.0146695
660.322	0.0147401
660.400	0.0146173
660.478	0.0147471
660.557	0.0147457
660.635	0.0145021
660.713	0.0146090
660.791	0.0146134
660.869	0.0147115
660.947	0.0146516
661.025	0.0146825
661.103	0.0145347
661.182	0.0145836
661.260	0.0146524
661.338	0.0147372
661.416	0.0147177
661.494	0.0146279
661.572	0.0147567
661.650	0.0146311
661.728	0.0145913
661.807	0.0145922
661.885	0.0146314
661.963	0.0145550
662.041	0.0145735
662.119	0.0146442
662.197	0.0145885
662.275	0.0145796
662.353	0.0145950
662.432	0.0146736
662.510	0.0146905
662.588	0.0144898
662.666	0.0145140
662.744	0.0146690
662.822	0.0145559
662.900	0.0147396
662.978	0.0146504
663.057	0.0144966
663.135	0.0145285
663.213	0.0147063
663.291	0.0147259
663.369	0.0146280
663.447	0.0146267
663.525	0.0146270
663.603	0.0146888
663.682	0.0146152
663.760	0.0146774
663.838	0.0145316
663.916	0.0145863
663.994	0.0146059
664.072	0.0146639
664.150	0.0147678
664.228	0.0147752
664.307	0.0147181
664.385	0.0147048
664.463	0.0147806
664.541	0.0146371
664.619	0.0147340
664.697	0.0147644
664.775	0.0146232
664.853	0.0148084
664.932	0.0146935
665.010	0.0147098
665.088	0.0147017
665.166	0.0147864
665.244	0.0148213
665.322	0.0145917
665.400	0.0147638
665.478	0.0148555
665.557	0.0146765
665.635	0.0146991
665.713	0.0147239
665.791	0.0147655
665.869	0.0147025
665.947	0.0146049
666.025	0.0145557
666.103	0.0144100
666.182	0.0145454
666.260	0.0145410
666.338	0.0144836
666.416	0.0146556
666.494	0.0146198
666.572	0.0144605
666.650	0.0147481
666.728	0.0146766
666.807	0.0145692
666.885	0.0146531
666.963	0.0148426
667.041	0.0148631
667.119	0.0149483
667.197	0.0147766
667.275	0.0149151
667.353	0.0149392
667.432	0.0149573
667.510	0.0150218
667.588	0.0151073
667.666	0.0151424
667.744	0.0150551
667.822	0.0149944
667.900	0.0148388
667.978	0.0147199
668.057	0.0147855
668.135	0.0146244
668.213	0.0145377
668.291	0.0144363
668.369	0.0143400
668.447	0.0142556
668.525	0.0141840
668.603	0.0140868
668.682	0.0140594
668.760	0.0140478
668.838	0.0141086
668.916	0.0141810
668.994	0.0141219
669.072	0.0141904
669.150	0.0144288
669.228	0.0144250
669.307	0.0147164
669.385	0.0149144
669.463	0.0151293
669.541	0.0153367
669.619	0.0156575
669.697	0.0156509
669.775	0.0157529
669.853	0.0157867
669.932	0.0159396
670.010	0.0158503
670.088	0.0159131
670.166	0.0158995
670.244	0.0157020
670.322	0.0154644
670.400	0.0151762
670.478	0.0149712
670.557	0.0147343
670.635	0.0143461
670.713	0.0140905
670.791	0.0138165
670.869	0.0135517
670.947	0.0133647
671.025	0.0130318
671.103	0.0127454
671.182	0.0128669
671.260	0.0129333
671.338	0.0127897
671.416	0.0129378
671.494	0.0131233
671.572	0.0133215
671.650	0.0135805
671.728	0.0139643
671.807	0.0143271
671.885	0.0148962
671.963	0.0151828
672.041	0.0156776
672.119	0.0160781
672.197	0.0165389
672.275	0.0167368
672.353	0.0169343
672.432	0.0172556
672.510	0.0172102
672.588	0.0172778
672.666	0.0173797
672.744	0.0171622
672.822	0.0170170
672.900	0.0167519
672.978	0.0165071
673.057	0.0160011
673.135	0.0157027
673.213	0.0151637
673.291	0.0145605
673.369	0.0141158
673.447	0.0138508
673.525	0.0132565
673.603	0.0129438
673.682	0.0125081
673.760	0.0122966
673.838	0.0120920
673.916	0.0121278
673.994	0.0119588
674.072	0.0118801
674.150	0.0121371
674.228	0.0121851
674.307	0.0124001
674.385	0.0129147
674.463	0.0131336
674.541	0.0134077
674.619	0.0138822
674.697	0.0143941
674.775	0.0147480
674.853	0.0150692
674.932	0.0152105
675.010	0.0156247
675.088	0.0159710
675.166	0.0162772
675.244	0.0164790
675.322	0.0167139
675.400	0.0171002
675.478	0.0170193
675.557	0.0170184
675.635	0.0170236
675.713	0.0169583
675.791	0.0168938
675.869	0.0168049
675.947	0.0164136
676.025	0.0162262
676.103	0.0158910
676.182	0.0155157
676.260	0.0151798
676.338	0.0149025
676.416	0.0145557
676.494	0.0143729
676.572	0.0140334
676.650	0.0137287
676.728	0.0132977
676.807	0.0130413
676.885	0.0127818
676.963	0.0127858
677.041	0.0126463
677.119	0.0124529
677.197	0.0124718
677.275	0.0125431
677.353	0.0127516
677.432	0.0129974
677.510	0.0131912
677.588	0.0135220
677.666	0.0137868
677.744	0.0141404
677.822	0.0145680
677.900	0.0149487
677.978	0.0150854
678.057	0.0154150
678.135	0.0158118
678.213	0.0159901
678.291	0.0160727
678.369	0.0160728
678.447	0.0161874
678.525	0.0162106
678.603	0.0160938
678.682	0.0159193
678.760	0.0159951
678.838	0.0157703
678.916	0.0154542
678.994	0.0152376
679.072	0.0149994
679.150	0.0147010
679.228	0.0144445
679.307	0.0142857
679.385	0.0141042
679.463	0.0136881
679.541	0.0134489
679.619	0.0133237
679.697	0.0131114
679.775	0.0129279
679.853	0.0129215
679.932	0.0129716
680.010	0.0130656
680.088	0.0132729
680.166	0.0133527
680.244	0.0135442
680.322	0.0138163
680.400	0.0142290
680.478	0.0146085
680.557	0.0148579
680.635	0.0151599
680.713	0.0157127
680.791	0.0159753
680.869	0.0162498
680.947	0.0164957
681.025	0.0168330
681.103	0.0170025
681.182	0.0172030
681.260	0.0170328
681.338	0.0171816
681.416	0.0170538
681.494	0.0168167
681.572	0.0166348
681.650	0.0163512
681.728	0.0160815
681.807	0.0158875
681.885	0.0155135
681.963	0.0151205
682.041	0.0149232
682.119	0.0145148
682.197	0.0141973
682.275	0.0140475
682.353	0.0137691
682.432	0.0133735
682.510	0.0131490
682.588	0.0129193
682.666	0.0127043
682.744	0.0125538
682.822	0.0124265
682.900	0.0122781
682.978	0.0121541
683.057	0.0120823
683.135	0.0122321
683.213	0.0121230
683.291	0.0120853
683.369	0.0123898
683.447	0.0124252
683.525	0.0124770
683.603	0.0128362
683.682	0.0129697
683.760	0.0133509
683.838	0.0135773
683.916	0.0138344
683.994	0.0141216
684.072	0.0145470
684.150	0.0147677
684.228	0.0151804
684.307	0.0153830
684.385	0.0158778
684.463	0.0161398
684.541	0.0165804
684.619	0.0168106
684.697	0.0170110
684.775	0.0171581
684.853	0.0176042
684.932	0.0178009
685.010	0.0178315
685.088	0.0180422
685.166	0.0181386
685.244	0.0181747
685.322	0.0182524
685.400	0.0181651
685.478	0.0181702
685.557	0.0179385
685.635	0.0175089
685.713	0.0172963
685.791	0.0169314
685.869	0.0165381
685.947	0.0160239
686.025	0.0154932
686.103	0.0150639
686.182	0.0147566
686.260	0.0141224
686.338	0.0136631
686.416	0.0132234
686.494	0.0128746
686.572	0.0125982
686.650	0.0122407
686.728	0.0120113
686.807	0.0118328
686.885	0.0115561
686.963	0.0115990
687.041	0.0114823
687.119	0.0113765
687.197	0.0113393
687.275	0.0112708
687.353	0.0113537
687.432	0.0112357
687.510	0.0113820
687.588	0.0114159
687.666	0.0115630
687.744	0.0116891
687.822	0.0118512
687.900	0.0121974
687.978	0.0123225
688.057	0.0128099
688.135	0.0131327
688.213	0.0135071
688.291	0.0138960
688.369	0.0144566
688.447	0.0150282
688.525	0.0153448
688.603	0.0158288
688.682	0.0164734
688.760	0.0168763
688.838	0.0174117
688.916	0.0177824
688.994	0.0181950
689.072	0.0185925
689.150	0.0187718
689.228	0.0188342
689.307	0.0190271
689.385	0.0191329
689.463	0.0190533
689.541	0.0189896
689.619	0.0188463
689.697	0.0187014
689.775	0.0182504
689.853	0.0179580
689.932	0.0177462
690.010	0.0173856
690.088	0.0170087
690.166	0.0165182
690.244	0.0160891
690.322	0.0157372
690.400	0.0152193
690.478	0.0147262
690.557	0.0143092
690.635	0.0137696
690.713	0.0133970
690.791	0.0127190
690.869	0.0124574
690.947	0.0121177
691.025	0.0117371
691.103	0.0114813
691.182	0.0112943
691.260	0.0113325
691.338	0.0114455
691.416	0.0115520
691.494	0.0117355
691.572	0.0119942
691.650	0.0122230
691.728	0.0124664
691.807	0.0127266
691.885	0.0129597
691.963	0.0131542
692.041	0.0132715
692.119	0.0133013
692.197	0.0133453
692.275	0.0133893
692.353	0.0133283
692.432	0.0130879
692.510	0.0132904
692.588	0.0131170
692.666	0.0129672
692.744	0.0130336
692.822	0.0131582
692.900	0.0133277
692.978	0.0132838
693.057	0.0138029
693.135	0.0140154
693.213	0.0145082
693.291	0.0148191
693.369	0.0152044
693.447	0.0155758
693.525	0.0160543
693.603	0.0165182
693.682	0.0169595
693.760	0.0173357
693.838	0.0175425
693.916	0.0179202
693.994	0.0182623
694.072	0.0183372
694.150	0.0185128
694.228	0.0186906
694.307	0.0186124
694.385	0.0186393
694.463	0.0185789
694.541	0.0183863
694.619	0.0181908
694.697	0.0181710
694.775	0.0177825
694.853	0.0174751
694.932	0.0168645
695.010	0.0164652
695.088	0.0161253
695.166	0.0155962
695.244	0.0149268
695.322	0.0144373
695.400	0.0139751
695.478	0.0134525
695.557	0.0129814
695.635	0.0126095
695.713	0.0122331
695.791	0.0119255
695.869	0.0115726
695.947	0.0115258
696.025	0.0113704
696.103	0.0111413
696.182	0.0112317
696.260	0.0112437
696.338	0.0110963
696.416	0.0113084
696.494	0.0116821
696.572	0.0119012
696.650	0.0122217
696.728	0.0126246
696.807	0.0130161
696.885	0.0133638
696.963	0.0139332
697.041	0.0143090
697.119	0.0146393
697.197	0.0150838
697.275	0.0155807
697.353	0.0158767
697.432	0.0161687
697.510	0.0162157
697.588	0.0164268
697.666	0.0165116
697.744	0.0165507
697.822	0.0165383
697.900	0.0164704
697.978	0.0164558
698.057	0.0163458
698.135	0.0160643
698.213	0.0158228
698.291	0.0157162
698.369	0.0154093
698.447	0.0149860
698.525	0.0147461
698.603	0.0145047
698.682	0.0142644
698.760	0.0142372
698.838	0.0140168
698.916	0.0138445
698.994	0.0137333
699.072	0.0135796
699.150	0.0138187
699.228	0.0137685
699.307	0.0139940
699.385	0.0141969
699.463	0.0143977
699.541	0.0145679
699.619	0.0146937
699.697	0.0148949
699.775	0.0152198
699.853	0.0154197
699.932	0.0155432
700.010	0.0156222
700.088	0.0157968
700.166	0.0157899
700.244	0.0159836
700.322	0.0160680
700.400	0.0160563
700.478	0.0160581
700.557	0.0161106
700.635	0.0161810
700.713	0.0159777
700.791	0.0159927
700.869	0.0157700
700.947	0.0156638
701.025	0.0156208
701.103	0.0153880
701.182	0.0153307
701.260	0.0150621
701.338	0.0149802
701.416	0.0147913
701.494	0.0147254
701.572	0.0144260
701.650	0.0144138
701.728	0.0140061
701.807	0.0139171
701.885	0.0135725
701.963	0.0134310
702.041	0.0133212
702.119	0.0133196
702.197	0.0131753
702.275	0.0130457
702.353	0.0129127
702.432	0.0128568
702.510	0.0128433
702.588	0.0131004
702.666	0.0130517
702.744	0.0130661
702.822	0.0132587
702.900	0.0134307
702.978	0.0136658
703.057	0.0138338
703.135	0.0140680
703.213	0.0140529
703.291	0.0144096
703.369	0.0146294
703.447	0.0147344
703.525	0.0147376
703.603	0.0149706
703.682	0.0150243
703.760	0.0151712
703.838	0.0151998
703.916	0.0153001
703.994	0.0152213
704.072	0.0152281
704.150	0.0152701
704.228	0.0152760
704.307	0.0152952
704.385	0.0152370
704.463	0.0151043
704.541	0.0151718
704.619	0.0152089
704.697	0.0151899
704.775	0.0152558
704.853	0.0152461
704.932	0.0149545
705.010	0.0150934
705.088	0.0149603
705.166	0.0148484
705.244	0.0148175
705.322	0.0147105
705.400	0.0145488
705.478	0.0145394
705.557	0.0143614
705.635	0.0141847
705.713	0.0141621
705.791	0.0142082
705.869	0.0142043
705.947	0.0143003
706.025	0.0142946
706.103	0.0143964
706.182	0.0146481
706.260	0.0147353
706.338	0.0151198
706.416	0.0152396
706.494	0.0153744
706.572	0.0156414
706.650	0.0160505
706.728	0.0162470
706.807	0.0161150
706.885	0.0162884
706.963	0.0163293
707.041	0.0161968
707.119	0.0161396
707.197	0.0162924
707.275	0.0161310
707.353	0.0158124
707.432	0.0156293
707.510	0.0153700
707.588	0.0149707
707.666	0.0147868
707.744	0.0144965
707.822	0.0142651
707.900	0.0139808
707.978	0.0136490
708.057	0.0135068
708.135	0.0132365
708.213	0.0131942
708.291	0.0129453
708.369	0.0129124
708.447	0.0128506
708.525	0.0127111
708.603	0.0128362
708.682	0.0129093
708.760	0.0129304
708.838	0.0130214
708.916	0.0131741
708.994	0.0133392
709.072	0.0134705
709.150	0.0135587
709.228	0.0139189
709.307	0.0140403
709.385	0.0142317
709.463	0.0143169
709.541	0.0145505
709.619	0.0145467
709.697	0.0146185
709.775	0.0147576
709.853	0.0146478
709.932	0.0146597
710.010	0.0147453
710.088	0.0147325
710.166	0.0147858
710.244	0.0147468
710.322	0.0147080
710.400	0.0145885
710.478	0.0147120
710.557	0.0147621
710.635	0.0148575
710.713	0.0149632
710.791	0.0148519
710.869	0.0149968
710.947	0.0152318
711.025	0.0152428
711.103	0.0152173
711.182	0.0153416
711.260	0.0154285
711.338	0.0154096
711.416	0.0154208
711.494	0.0155853
711.572	0.0155249
711.650	0.0153687
711.728	0.0154635
711.807	0.0153923
711.885	0.0152792
711.963	0.0154230
712.041	0.0153255
712.119	0.0154684
712.197	0.0155118
712.275	0.0155413
712.353	0.0155387
712.432	0.0155163
712.510	0.0155668
712.588	0.0155352
712.666	0.0155300
712.744	0.0153709
712.822	0.0153748
712.900	0.0151558
712.978	0.0151500
713.057	0.0151129
713.135	0.0150438
713.213	0.0148534
713.291	0.0146845
713.369	0.0146619
713.447	0.0145343
713.525	0.0145606
713.603	0.0145585
713.682	0.0145269
713.760	0.0143715
713.838	0.0143028
713.916	0.0142432
713.994	0.0143265
714.072	0.0144107
714.150	0.0143961
714.228	0.0143343
714.307	0.0142023
714.385	0.0140769
714.463	0.0141320
714.541	0.0139439
714.619	0.0139839
714.697	0.0139358
714.775	0.0137451
714.853	0.0137779
714.932	0.0135258
715.010	0.0134634
715.088	0.0134633
715.166	0.0133135
715.244	0.0133210
715.322	0.0131821
715.400	0.0131300
715.478	0.0131955
715.557	0.0132452
715.635	0.0132488
715.713	0.0134560
715.791	0.0136425
715.869	0.0135973
715.947	0.0138039
716.025	0.0140833
716.103	0.0142584
716.182	0.0144968
716.260	0.0145988
716.338	0.0147557
716.416	0.0148705
716.494	0.0151982
716.572	0.0153805
716.650	0.0153346
716.728	0.0155354
716.807	0.0155592
716.885	0.0156626
716.963	0.0157668
717.041	0.0157874
717.119	0.0158054
717.197	0.0158774
717.275	0.0160940
717.353	0.0161536
717.432	0.0160846
717.510	0.0163278
717.588	0.0163934
717.666	0.0162843
717.744	0.0164909
717.822	0.0163628
717.900	0.0162811
717.978	0.0161049
718.057	0.0161402
718.135	0.0160925
718.213	0.0160428
718.291	0.0157910
718.369	0.0156689
718.447	0.0156183
718.525	0.0155731
718.603	0.0154077
718.682	0.0152035
718.760	0.0151312
718.838	0.0150265
718.916	0.0146637
718.994	0.0148175
719.072	0.0147804
719.150	0.0146333
719.228	0.0145741
719.307	0.0145773
719.385	0.0143970
719.463	0.0144138
719.541	0.0143103
719.619	0.0142075
719.697	0.0141402
719.775	0.0141633
719.853	0.0139907
719.932	0.0140862
720.010	0.0139977
720.088	0.0139430
720.166	0.0139255
720.244	0.0138309
720.322	0.0136102
720.400	0.0134729
720.478	0.0133225
720.557	0.0135129
720.635	0.0133873
720.713	0.0132492
720.791	0.0132259
720.869	0.0130483
720.947	0.0130507
721.025	0.0130897
721.103	0.0131094
721.182	0.0130373
721.260	0.0132127
721.338	0.0132428
721.416	0.0132790
721.494	0.0135970
721.572	0.0137891
721.650	0.0138368
721.728	0.0139633
721.807	0.0142418
721.885	0.0146125
721.963	0.0147353
722.041	0.0148964
722.119	0.0151729
722.197	0.0152127
722.275	0.0154402
722.353	0.0156777
722.432	0.0157346
722.510	0.0159353
722.588	0.0159138
722.666	0.0162019
722.744	0.0162180
722.822	0.0161581
722.900	0.0161370
722.978	0.0162972
723.057	0.0161691
723.135	0.0160999
723.213	0.0160446
723.291	0.0159138
723.369	0.0158983
723.447	0.0158369
723.525	0.0157007
723.603	0.0156936
723.682	0.0156400
723.760	0.0156564
723.838	0.0155772
723.916	0.0154117
723.994	0.0153618
724.072	0.0152415
724.150	0.0152350
724.228	0.0152032
724.307	0.0150469
724.385	0.0148045
724.463	0.0148603
724.541	0.0148901
724.619	0.0146165
724.697	0.0146041
724.775	0.0144603
724.853	0.0143499
724.932	0.0142284
725.010	0.0141914
725.088	0.0140137
725.166	0.0139920
725.244	0.0139449
725.322	0.0139266
725.400	0.0138979
725.478	0.0139227
725.557	0.0137244
725.635	0.0138792
725.713	0.0139441
725.791	0.0139532
725.869	0.0141001
725.947	0.0141279
726.025	0.0141740
726.103	0.0140759
726.182	0.0140173
726.260	0.0140657
726.338	0.0142690
726.416	0.0141103
726.494	0.0142169
726.572	0.0142957
726.650	0.0142916
726.728	0.0141514
726.807	0.0141869
726.885	0.0142491
726.963	0.0141982
727.041	0.0142673
727.119	0.0143549
727.197	0.0142737
727.275	0.0142558
727.353	0.0143426
727.432	0.0143437
727.510	0.0142754
727.588	0.0142223
727.666	0.0142740
727.744	0.0142848
727.822	0.0143542
727.900	0.0143446
727.978	0.0144625
728.057	0.0146106
728.135	0.0147562
728.213	0.0147997
728.291	0.0148844
728.369	0.0149244
728.447	0.0151207
728.525	0.0151739
728.603	0.0151627
728.682	0.0152405
728.760	0.0153712
728.838	0.0153477
728.916	0.0152264
728.994	0.0152274
729.072	0.0152617
729.150	0.0153021
729.228	0.0152946
729.307	0.0152105
729.385	0.0151366
729.463	0.0151154
729.541	0.0151467
729.619	0.0151659
729.697	0.0151967
729.775	0.0151654
729.853	0.0151218
729.932	0.0151038
730.010	0.0152453
730.088	0.0151947
730.166	0.0149906
730.244	0.0150691
730.322	0.0151145
730.400	0.0151382
730.478	0.0149836
730.557	0.0149451
730.635	0.0149794
730.713	0.0147476
730.791	0.0146405
730.869	0.0145837
730.947	0.0146098
731.025	0.0144502
731.103	0.0143668
731.182	0.0143244
731.260	0.0143238
731.338	0.0140965
731.416	0.0140123
731.494	0.0140386
731.572	0.0141058
731.650	0.0140158
731.728	0.0141202
731.807	0.0141998
731.885	0.0142278
731.963	0.0140273
732.041	0.0141508
732.119	0.0140432
732.197	0.0140539
732.275	0.0141537
732.353	0.0142664
732.432	0.0143577
732.510	0.0143219
732.588	0.0143629
732.666	0.0143880
732.744	0.0142165
732.822	0.0143623
732.900	0.0144598
732.978	0.0145007
733.057	0.0143085
733.135	0.0142814
733.213	0.0143279
733.291	0.0143676
733.369	0.0144411
733.447	0.0141971
733.525	0.0142888
733.603	0.0143581
733.682	0.0143591
733.760	0.0143816
733.838	0.0142972
733.916	0.0143980
733.994	0.0143627
734.072	0.0143767
734.150	0.0145281
734.228	0.0143869
734.307	0.0144694
734.385	0.0145515
734.463	0.0148141
734.541	0.0147576
734.619	0.0147276
734.697	0.0146786
734.775	0.0148638
734.853	0.0148898
734.932	0.0148723
735.010	0.0148895
735.088	0.0149540
735.166	0.0149229
735.244	0.0149183
735.322	0.0150426
735.400	0.0149776
735.478	0.0149284
735.557	0.0149349
735.635	0.0149706
735.713	0.0150516
