05/14/2022	19:29:05	Ver.	4.1	UNKNOWN
Optical Delay	650.009681	Delta X		0.078125	Sweeps	1	Scan Rate	0/0
Coordinates	Axis 1	NaN	Axis 2	NaN	Axis 3	NaN	Axis 4	NaN	Axis 5	NaN	Axis 6	0.000000
TX Power	0.000000	RX Power	0.000000

650.010	0.0146616
650.088	0.0145402
650.166	0.0145770
650.244	0.0147098
650.322	0.0146186
650.400	0.0146181
650.478	0.0147828
650.557	0.0146282
650.635	0.0145609
650.713	0.0145181
650.791	0.0146239
650.869	0.0144879
650.947	0.0146275
651.025	0.0145632
651.103	0.0145485
651.182	0.0146110
651.260	0.0146523
651.338	0.0146682
651.416	0.0146834
651.494	0.0145802
651.572	0.0145306
651.650	0.0147237
651.728	0.0146137
651.807	0.0146719
651.885	0.0147884
651.963	0.0145702
652.041	0.0144721
652.119	0.0146143
652.197	0.0146595
652.275	0.0145264
652.353	0.0147649
652.432	0.0145277
652.510	0.0147697
652.588	0.0146191
652.666	0.0147359
652.744	0.0147215
652.822	0.0145711
652.900	0.0146992
652.978	0.0146676
653.057	0.0147169
653.135	0.0147095
653.213	0.0146350
653.291	0.0147367
653.369	0.0147293
653.447	0.0145467
653.525	0.0146684
653.603	0.0147757
653.682	0.0147265
653.760	0.0147327
653.838	0.0145510
653.916	0.0145972
653.994	0.0147121
654.072	0.0147079
654.150	0.0147884
654.228	0.0147588
654.307	0.0147619
654.385	0.0146806
654.463	0.0146798
654.541	0.0147106
654.619	0.0146457
654.697	0.0147913
654.775	0.0148027
654.853	0.0146853
654.932	0.0148191
655.010	0.0147112
655.088	0.0148023
655.166	0.0147271
655.244	0.0148325
655.322	0.0147810
655.400	0.0146856
655.478	0.0147783
655.557	0.0148217
655.635	0.0147359
655.713	0.0147700
655.791	0.0146747
655.869	0.0147987
655.947	0.0147072
656.025	0.0148422
656.103	0.0147021
656.182	0.0148193
656.260	0.0147307
656.338	0.0148349
656.416	0.0147861
656.494	0.0146764
656.572	0.0146938
656.650	0.0147219
656.728	0.0148251
656.807	0.0148624
656.885	0.0149082
656.963	0.0147711
657.041	0.0147346
657.119	0.0147469
657.197	0.0147350
657.275	0.0148004
657.353	0.0148275
657.432	0.0147655
657.510	0.0147123
657.588	0.0146204
657.666	0.0147649
657.744	0.0147290
657.822	0.0148590
657.900	0.0148445
657.978	0.0146056
658.057	0.0146822
658.135	0.0146982
658.213	0.0148191
658.291	0.0147485
658.369	0.0147787
658.447	0.0148867
658.525	0.0147311
658.603	0.0147646
658.682	0.0146602
658.760	0.0147446
658.838	0.0147626
658.916	0.0147717
658.994	0.0148369
659.072	0.0147678
659.150	0.0148267
659.228	0.0147567
659.307	0.0147503
659.385	0.0148077
659.463	0.0148363
659.541	0.0147263
659.619	0.0147771
659.697	0.0147686
659.775	0.0148125
659.853	0.0148476
659.932	0.0148471
660.010	0.0146640
660.088	0.0146950
660.166	0.0147310
660.244	0.0146998
660.322	0.0148229
660.400	0.0148407
660.478	0.0147843
660.557	0.0148208
660.635	0.0148156
660.713	0.0147605
660.791	0.0148861
660.869	0.0148151
660.947	0.0149465
661.025	0.0147269
661.103	0.0148721
661.182	0.0148092
661.260	0.0148656
661.338	0.0148068
661.416	0.0148420
661.494	0.0147103
661.572	0.0147984
661.650	0.0148357
661.728	0.0148779
661.807	0.0146832
661.885	0.0147110
661.963	0.0147240
662.041	0.0148171
662.119	0.0148122
662.197	0.0147725
662.275	0.0146484
662.353	0.0147935
662.432	0.0148091
662.510	0.0147748
662.588	0.0147099
662.666	0.0146342
662.744	0.0148326
662.822	0.0146809
662.900	0.0148846
662.978	0.0147824
663.057	0.0146918
663.135	0.0147555
663.213	0.0148256
663.291	0.0148565
663.369	0.0147736
663.447	0.0148446
663.525	0.0148419
663.603	0.0148132
663.682	0.0146935
663.760	0.0147963
663.838	0.0147968
663.916	0.0147483
663.994	0.0147986
664.072	0.0147416
664.150	0.0147971
664.228	0.0148418
664.307	0.0146339
664.385	0.0147682
664.463	0.0147045
664.541	0.0145834
664.619	0.0146114
664.697	0.0145365
664.775	0.0144978
664.853	0.0146307
664.932	0.0145877
665.010	0.0145223
665.088	0.0146084
665.166	0.0146378
665.244	0.0145878
665.322	0.0145744
665.400	0.0146447
665.478	0.0145494
665.557	0.0145730
665.635	0.0146189
665.713	0.0146697
665.791	0.0146793
665.869	0.0147014
665.947	0.0146561
666.025	0.0147221
666.103	0.0148527
666.182	0.0149264
666.260	0.0148920
666.338	0.0149746
666.416	0.0150413
666.494	0.0150764
666.572	0.0149199
666.650	0.0150015
666.728	0.0150537
666.807	0.0149094
666.885	0.0147509
666.963	0.0148100
667.041	0.0147366
667.119	0.0144767
667.197	0.0144501
667.275	0.0143546
667.353	0.0142204
667.432	0.0141131
667.510	0.0140210
667.588	0.0141395
667.666	0.0140778
667.744	0.0140015
667.822	0.0139764
667.900	0.0142068
667.978	0.0141976
668.057	0.0143128
668.135	0.0144614
668.213	0.0146362
668.291	0.0147693
668.369	0.0149642
668.447	0.0151144
668.525	0.0153009
668.603	0.0154391
668.682	0.0154904
668.760	0.0156693
668.838	0.0158208
668.916	0.0158814
668.994	0.0159151
669.072	0.0158570
669.150	0.0157944
669.228	0.0156120
669.307	0.0154163
669.385	0.0152884
669.463	0.0150388
669.541	0.0147637
669.619	0.0144102
669.697	0.0140409
669.775	0.0138174
669.853	0.0134833
669.932	0.0133008
670.010	0.0130155
670.088	0.0129087
670.166	0.0125161
670.244	0.0125453
670.322	0.0126876
670.400	0.0127036
670.478	0.0129157
670.557	0.0130966
670.635	0.0133496
670.713	0.0138709
670.791	0.0143157
670.869	0.0145978
670.947	0.0150721
671.025	0.0156161
671.103	0.0160866
671.182	0.0163308
671.260	0.0168311
671.338	0.0171428
671.416	0.0174096
671.494	0.0174915
671.572	0.0174657
671.650	0.0175368
671.728	0.0175274
671.807	0.0171781
671.885	0.0169395
671.963	0.0167306
672.041	0.0164812
672.119	0.0159200
672.197	0.0153603
672.275	0.0149191
672.353	0.0144480
672.432	0.0137710
672.510	0.0134072
672.588	0.0130035
672.666	0.0125192
672.744	0.0121003
672.822	0.0119502
672.900	0.0117182
672.978	0.0116804
673.057	0.0115120
673.135	0.0117507
673.213	0.0119833
673.291	0.0122319
673.369	0.0126891
673.447	0.0128381
673.525	0.0132858
673.603	0.0138259
673.682	0.0141709
673.760	0.0146202
673.838	0.0150606
673.916	0.0157394
673.994	0.0160568
674.072	0.0163202
674.150	0.0167165
674.228	0.0170238
674.307	0.0172105
674.385	0.0174516
674.463	0.0175556
674.541	0.0175787
674.619	0.0174802
674.697	0.0173950
674.775	0.0173910
674.853	0.0172005
674.932	0.0169847
675.010	0.0167274
675.088	0.0162887
675.166	0.0160565
675.244	0.0157321
675.322	0.0153041
675.400	0.0148590
675.478	0.0144734
675.557	0.0140937
675.635	0.0138627
675.713	0.0134573
675.791	0.0130418
675.869	0.0128928
675.947	0.0126438
676.025	0.0124068
676.103	0.0121276
676.182	0.0121603
676.260	0.0123239
676.338	0.0123650
676.416	0.0124256
676.494	0.0126261
676.572	0.0128036
676.650	0.0131843
676.728	0.0134837
676.807	0.0137563
676.885	0.0142938
676.963	0.0146952
677.041	0.0150564
677.119	0.0154130
677.197	0.0157216
677.275	0.0161090
677.353	0.0163465
677.432	0.0164703
677.510	0.0165968
677.588	0.0165383
677.666	0.0165483
677.744	0.0163895
677.822	0.0162164
677.900	0.0160469
677.978	0.0157052
678.057	0.0157556
678.135	0.0154678
678.213	0.0152094
678.291	0.0149640
678.369	0.0146732
678.447	0.0144600
678.525	0.0143079
678.603	0.0141316
678.682	0.0140910
678.760	0.0138454
678.838	0.0138536
678.916	0.0137417
678.994	0.0136752
679.072	0.0134412
679.150	0.0134636
679.228	0.0135806
679.307	0.0135350
679.385	0.0136291
679.463	0.0138743
679.541	0.0141080
679.619	0.0143427
679.697	0.0144301
679.775	0.0147928
679.853	0.0150372
679.932	0.0153521
680.010	0.0154254
680.088	0.0156671
680.166	0.0158057
680.244	0.0157015
680.322	0.0160609
680.400	0.0159994
680.478	0.0162086
680.557	0.0162039
680.635	0.0161460
680.713	0.0161667
680.791	0.0161652
680.869	0.0160366
680.947	0.0158774
681.025	0.0156413
681.103	0.0156041
681.182	0.0154314
681.260	0.0150851
681.338	0.0148824
681.416	0.0146432
681.494	0.0143568
681.572	0.0142023
681.650	0.0138155
681.728	0.0135101
681.807	0.0134117
681.885	0.0133397
681.963	0.0129636
682.041	0.0128835
682.119	0.0126734
682.197	0.0126186
682.275	0.0125210
682.353	0.0124515
682.432	0.0123897
682.510	0.0126095
682.588	0.0126949
682.666	0.0128691
682.744	0.0129160
682.822	0.0132366
682.900	0.0136378
682.978	0.0137444
683.057	0.0141129
683.135	0.0145329
683.213	0.0148553
683.291	0.0151543
683.369	0.0155441
683.447	0.0159333
683.525	0.0161912
683.603	0.0162523
683.682	0.0166201
683.760	0.0168708
683.838	0.0170216
683.916	0.0170882
683.994	0.0172935
684.072	0.0172883
684.150	0.0172317
684.228	0.0174699
684.307	0.0174239
684.385	0.0174166
684.463	0.0172504
684.541	0.0171051
684.619	0.0172290
684.697	0.0169230
684.775	0.0166930
684.853	0.0165993
684.932	0.0162610
685.010	0.0162646
685.088	0.0158119
685.166	0.0153600
685.244	0.0150605
685.322	0.0147709
685.400	0.0144193
685.478	0.0139729
685.557	0.0135986
685.635	0.0132140
685.713	0.0129498
685.791	0.0125467
685.869	0.0124866
685.947	0.0122416
686.025	0.0119766
686.103	0.0120509
686.182	0.0118832
686.260	0.0117753
686.338	0.0117803
686.416	0.0119736
686.494	0.0119180
686.572	0.0119350
686.650	0.0119068
686.728	0.0119405
686.807	0.0121406
686.885	0.0123157
686.963	0.0124269
687.041	0.0126151
687.119	0.0130109
687.197	0.0132772
687.275	0.0136403
687.353	0.0138213
687.432	0.0142158
687.510	0.0145657
687.588	0.0146712
687.666	0.0149582
687.744	0.0155019
687.822	0.0157600
687.900	0.0159275
687.978	0.0164491
688.057	0.0167677
688.135	0.0169501
688.213	0.0172453
688.291	0.0174519
688.369	0.0177705
688.447	0.0180497
688.525	0.0181877
688.603	0.0182634
688.682	0.0183459
688.760	0.0183430
688.838	0.0184245
688.916	0.0184883
688.994	0.0185654
689.072	0.0183551
689.150	0.0181996
689.228	0.0182063
689.307	0.0179918
689.385	0.0175853
689.463	0.0173742
689.541	0.0170335
689.619	0.0165845
689.697	0.0159956
689.775	0.0154289
689.853	0.0148143
689.932	0.0141110
690.010	0.0133594
690.088	0.0125517
690.166	0.0120721
690.244	0.0112937
690.322	0.0107197
690.400	0.0103769
690.478	0.00992554
690.557	0.00986824
690.635	0.00968071
690.713	0.00967316
690.791	0.00991257
690.869	0.0101546
690.947	0.0104735
691.025	0.0108932
691.103	0.0112442
691.182	0.0117100
691.260	0.0121832
691.338	0.0125311
691.416	0.0129000
691.494	0.0131134
691.572	0.0136707
691.650	0.0142382
691.728	0.0144553
691.807	0.0146606
691.885	0.0148608
691.963	0.0151139
692.041	0.0154408
692.119	0.0156133
692.197	0.0158607
692.275	0.0160069
692.353	0.0162085
692.432	0.0163320
692.510	0.0164227
692.588	0.0166068
692.666	0.0165684
692.744	0.0165271
692.822	0.0167016
692.900	0.0167477
692.978	0.0167631
693.057	0.0166303
693.135	0.0165319
693.213	0.0164225
693.291	0.0163130
693.369	0.0162876
693.447	0.0164075
693.525	0.0163754
693.603	0.0162104
693.682	0.0163698
693.760	0.0166330
693.838	0.0167351
693.916	0.0167512
693.994	0.0170396
694.072	0.0171608
694.150	0.0170314
694.228	0.0170918
694.307	0.0168575
694.385	0.0167509
694.463	0.0166084
694.541	0.0164849
694.619	0.0161103
694.697	0.0157492
694.775	0.0154436
694.853	0.0148930
694.932	0.0142001
695.010	0.0139394
695.088	0.0132663
695.166	0.0128551
695.244	0.0122211
695.322	0.0118568
695.400	0.0114188
695.478	0.0110615
695.557	0.0107166
695.635	0.0104762
695.713	0.0104474
695.791	0.0102679
695.869	0.0102850
695.947	0.0103493
696.025	0.0106444
696.103	0.0108425
696.182	0.0111017
696.260	0.0113073
696.338	0.0115832
696.416	0.0121381
696.494	0.0125615
696.572	0.0131053
696.650	0.0133810
696.728	0.0138652
696.807	0.0145026
696.885	0.0146815
696.963	0.0152817
697.041	0.0158327
697.119	0.0160915
697.197	0.0165876
697.275	0.0169349
697.353	0.0172231
697.432	0.0175799
697.510	0.0179327
697.588	0.0180589
697.666	0.0181747
697.744	0.0180236
697.822	0.0180183
697.900	0.0177919
697.978	0.0176888
698.057	0.0174918
698.135	0.0172454
698.213	0.0167679
698.291	0.0164115
698.369	0.0160487
698.447	0.0155696
698.525	0.0152234
698.603	0.0148741
698.682	0.0146801
698.760	0.0144049
698.838	0.0141344
698.916	0.0136949
698.994	0.0136498
699.072	0.0134524
699.150	0.0136102
699.228	0.0134942
699.307	0.0135447
699.385	0.0135835
699.463	0.0136395
699.541	0.0138062
699.619	0.0139862
699.697	0.0141410
699.775	0.0144958
699.853	0.0146024
699.932	0.0148583
700.010	0.0150713
700.088	0.0152423
700.166	0.0154800
700.244	0.0156068
700.322	0.0156632
700.400	0.0158248
700.478	0.0160594
700.557	0.0157549
700.635	0.0157064
700.713	0.0156506
700.791	0.0153625
700.869	0.0151293
700.947	0.0148304
701.025	0.0143479
701.103	0.0141538
701.182	0.0137519
701.260	0.0133987
701.338	0.0130133
701.416	0.0127416
701.494	0.0125260
701.572	0.0122976
701.650	0.0121497
701.728	0.0120889
701.807	0.0122077
701.885	0.0123283
701.963	0.0122594
702.041	0.0122873
702.119	0.0125327
702.197	0.0128275
702.275	0.0128777
702.353	0.0131070
702.432	0.0133418
702.510	0.0135864
702.588	0.0139779
702.666	0.0142599
702.744	0.0145562
702.822	0.0149440
702.900	0.0152176
702.978	0.0154572
703.057	0.0157650
703.135	0.0160409
703.213	0.0163240
703.291	0.0164275
703.369	0.0166021
703.447	0.0166619
703.525	0.0167683
703.603	0.0168815
703.682	0.0169418
703.760	0.0167943
703.838	0.0168510
703.916	0.0170139
703.994	0.0169946
704.072	0.0168290
704.150	0.0167812
704.228	0.0166515
704.307	0.0166275
704.385	0.0164809
704.463	0.0162402
704.541	0.0162814
704.619	0.0157401
704.697	0.0154502
704.775	0.0151933
704.853	0.0147415
704.932	0.0146235
705.010	0.0141800
705.088	0.0140309
705.166	0.0135832
705.244	0.0135644
705.322	0.0135091
705.400	0.0133189
705.478	0.0132840
705.557	0.0132595
705.635	0.0133395
705.713	0.0133453
705.791	0.0135246
705.869	0.0135899
705.947	0.0137060
706.025	0.0139285
706.103	0.0140592
706.182	0.0143197
706.260	0.0146027
706.338	0.0148026
706.416	0.0147926
706.494	0.0148022
706.572	0.0149142
706.650	0.0148093
706.728	0.0150816
706.807	0.0150067
706.885	0.0148486
706.963	0.0149297
707.041	0.0148079
707.119	0.0146529
707.197	0.0147271
707.275	0.0146098
707.353	0.0146397
707.432	0.0144348
707.510	0.0144560
707.588	0.0144660
707.666	0.0144479
707.744	0.0144780
707.822	0.0144940
707.900	0.0144799
707.978	0.0144787
708.057	0.0145896
708.135	0.0146158
708.213	0.0144990
708.291	0.0144925
708.369	0.0146541
708.447	0.0145007
708.525	0.0143903
708.603	0.0143948
708.682	0.0144762
708.760	0.0142461
708.838	0.0143358
708.916	0.0144200
708.994	0.0143919
709.072	0.0144069
709.150	0.0144796
709.228	0.0142922
709.307	0.0144913
709.385	0.0146230
709.463	0.0148380
709.541	0.0148301
709.619	0.0148287
709.697	0.0151504
709.775	0.0152018
709.853	0.0150961
709.932	0.0152851
710.010	0.0152654
710.088	0.0153131
710.166	0.0153583
710.244	0.0151942
710.322	0.0151520
710.400	0.0150669
710.478	0.0149711
710.557	0.0149707
710.635	0.0147996
710.713	0.0148007
710.791	0.0149895
710.869	0.0150172
710.947	0.0148766
711.025	0.0151234
711.103	0.0153456
711.182	0.0155399
711.260	0.0155532
711.338	0.0155763
711.416	0.0157060
711.494	0.0160256
711.572	0.0160423
711.650	0.0159915
711.728	0.0159192
711.807	0.0159399
711.885	0.0158477
711.963	0.0157742
712.041	0.0156758
712.119	0.0155423
712.197	0.0153419
712.275	0.0151618
712.353	0.0151315
712.432	0.0148579
712.510	0.0145275
712.588	0.0142443
712.666	0.0140759
712.744	0.0139739
712.822	0.0136480
712.900	0.0134821
712.978	0.0133556
713.057	0.0133847
713.135	0.0132502
713.213	0.0133417
713.291	0.0131932
713.369	0.0132739
713.447	0.0134334
713.525	0.0133324
713.603	0.0136829
713.682	0.0137530
713.760	0.0138655
713.838	0.0140439
713.916	0.0140853
713.994	0.0142286
714.072	0.0144169
714.150	0.0144502
714.228	0.0145657
714.307	0.0145751
714.385	0.0145743
714.463	0.0146349
714.541	0.0145514
714.619	0.0145793
714.697	0.0145712
714.775	0.0146667
714.853	0.0144876
714.932	0.0146071
715.010	0.0146166
715.088	0.0146250
715.166	0.0147423
715.244	0.0147499
715.322	0.0147361
715.400	0.0148569
715.478	0.0148824
715.557	0.0148223
715.635	0.0147034
715.713	0.0147524
715.791	0.0148050
715.869	0.0147975
715.947	0.0147800
716.025	0.0147053
716.103	0.0148747
716.182	0.0148103
716.260	0.0148821
716.338	0.0149879
716.416	0.0150169
716.494	0.0149721
716.572	0.0151965
716.650	0.0152862
716.728	0.0152670
716.807	0.0153317
716.885	0.0153572
716.963	0.0153166
717.041	0.0153208
717.119	0.0153994
717.197	0.0153066
717.275	0.0154646
717.353	0.0154621
717.432	0.0155053
717.510	0.0154964
717.588	0.0156104
717.666	0.0155892
717.744	0.0156362
717.822	0.0157330
717.900	0.0155704
717.978	0.0156334
718.057	0.0155924
718.135	0.0155458
718.213	0.0156727
718.291	0.0153674
718.369	0.0153174
718.447	0.0153117
718.525	0.0151112
718.603	0.0150893
718.682	0.0149643
718.760	0.0147355
718.838	0.0147451
718.916	0.0144357
718.994	0.0144526
719.072	0.0142527
719.150	0.0142298
719.228	0.0139484
719.307	0.0138352
719.385	0.0137560
719.463	0.0136208
719.541	0.0134547
719.619	0.0132001
719.697	0.0132704
719.775	0.0131242
719.853	0.0129894
719.932	0.0127596
720.010	0.0129086
720.088	0.0129242
720.166	0.0129515
720.244	0.0129082
720.322	0.0129604
720.400	0.0131305
720.478	0.0132864
720.557	0.0133064
720.635	0.0133963
720.713	0.0136382
720.791	0.0137709
720.869	0.0138552
720.947	0.0142331
721.025	0.0140868
721.103	0.0143857
721.182	0.0143034
721.260	0.0145735
721.338	0.0147974
721.416	0.0148116
721.494	0.0149967
721.572	0.0150937
721.650	0.0151619
721.728	0.0152064
721.807	0.0152485
721.885	0.0154068
721.963	0.0154099
722.041	0.0154482
722.119	0.0156561
722.197	0.0156063
722.275	0.0156592
722.353	0.0158577
722.432	0.0157645
722.510	0.0159119
722.588	0.0161563
722.666	0.0162498
722.744	0.0162360
722.822	0.0160253
722.900	0.0161275
722.978	0.0160470
723.057	0.0158884
723.135	0.0159029
723.213	0.0156857
723.291	0.0155744
723.369	0.0155555
723.447	0.0153268
723.525	0.0151375
723.603	0.0151376
723.682	0.0150002
723.760	0.0149598
723.838	0.0148164
723.916	0.0148170
723.994	0.0146162
724.072	0.0145549
724.150	0.0144505
724.228	0.0145381
724.307	0.0143879
724.385	0.0143741
724.463	0.0143365
724.541	0.0140806
724.619	0.0140070
724.697	0.0140092
724.775	0.0138890
724.853	0.0139430
724.932	0.0138719
725.010	0.0139130
725.088	0.0138915
725.166	0.0136451
725.244	0.0136919
725.322	0.0138045
725.400	0.0134940
725.478	0.0134040
725.557	0.0133768
725.635	0.0134988
725.713	0.0133995
725.791	0.0134470
725.869	0.0134978
725.947	0.0134916
726.025	0.0135864
726.103	0.0135727
726.182	0.0135609
726.260	0.0137370
726.338	0.0137736
726.416	0.0136693
726.494	0.0137920
726.572	0.0138319
726.650	0.0139585
726.728	0.0139900
726.807	0.0139514
726.885	0.0140405
726.963	0.0140620
727.041	0.0144227
727.119	0.0146520
727.197	0.0146407
727.275	0.0148884
727.353	0.0151394
727.432	0.0152773
727.510	0.0155169
727.588	0.0156274
727.666	0.0157258
727.744	0.0159427
727.822	0.0159819
727.900	0.0159343
727.978	0.0163200
728.057	0.0161252
728.135	0.0160067
728.213	0.0161002
728.291	0.0160852
728.369	0.0160265
728.447	0.0158610
728.525	0.0159302
728.603	0.0157298
728.682	0.0156084
728.760	0.0157607
728.838	0.0155437
728.916	0.0154198
728.994	0.0154341
729.072	0.0154168
729.150	0.0152469
729.228	0.0151508
729.307	0.0151509
729.385	0.0150947
729.463	0.0150001
729.541	0.0150475
729.619	0.0147473
729.697	0.0147391
729.775	0.0146571
729.853	0.0145386
729.932	0.0145316
730.010	0.0144141
730.088	0.0144087
730.166	0.0143247
730.244	0.0144069
730.322	0.0141658
730.400	0.0141193
730.478	0.0141041
730.557	0.0141468
730.635	0.0139612
730.713	0.0138174
730.791	0.0139706
730.869	0.0139782
730.947	0.0139098
731.025	0.0138621
731.103	0.0138097
731.182	0.0139496
731.260	0.0139529
731.338	0.0140470
731.416	0.0142955
731.494	0.0143505
731.572	0.0143447
731.650	0.0144576
731.728	0.0145000
731.807	0.0146004
731.885	0.0147078
731.963	0.0148377
732.041	0.0148867
732.119	0.0148764
732.197	0.0148827
732.275	0.0148344
732.353	0.0147188
732.432	0.0147913
732.510	0.0146657
732.588	0.0146969
732.666	0.0147186
732.744	0.0146056
732.822	0.0144045
732.900	0.0145562
732.978	0.0146426
733.057	0.0145795
733.135	0.0144898
733.213	0.0145821
733.291	0.0146928
733.369	0.0148364
733.447	0.0148635
733.525	0.0148170
733.603	0.0150355
733.682	0.0148919
733.760	0.0149530
733.838	0.0151221
733.916	0.0150646
733.994	0.0151283
734.072	0.0153448
734.150	0.0151432
734.228	0.0151115
734.307	0.0151427
734.385	0.0150392
734.463	0.0151475
734.541	0.0149732
734.619	0.0150021
734.697	0.0150627
734.775	0.0150288
734.853	0.0151458
734.932	0.0152068
735.010	0.0151781
735.088	0.0151577
735.166	0.0152280
735.244	0.0150621
735.322	0.0152319
735.400	0.0150908
735.478	0.0150269
735.557	0.0151138
735.635	0.0150870
735.713	0.0151294
