05/14/2022	19:29:30	Ver.	4.1	UNKNOWN
Optical Delay	650.009681	Delta X		0.078125	Sweeps	1	Scan Rate	0/0
Coordinates	Axis 1	NaN	Axis 2	NaN	Axis 3	NaN	Axis 4	NaN	Axis 5	NaN	Axis 6	0.000000
TX Power	0.000000	RX Power	0.000000

650.010	0.0146931
650.088	0.0147322
650.166	0.0146646
650.244	0.0148608
650.322	0.0147499
650.400	0.0148232
650.478	0.0147573
650.557	0.0146803
650.635	0.0147127
650.713	0.0147130
650.791	0.0147610
650.869	0.0147411
650.947	0.0148093
651.025	0.0147545
651.103	0.0147923
651.182	0.0147603
651.260	0.0147141
651.338	0.0146676
651.416	0.0147285
651.494	0.0147005
651.572	0.0147491
651.650	0.0148231
651.728	0.0147344
651.807	0.0147900
651.885	0.0148170
651.963	0.0146835
652.041	0.0146397
652.119	0.0146822
652.197	0.0147871
652.275	0.0147796
652.353	0.0146416
652.432	0.0147260
652.510	0.0147268
652.588	0.0148526
652.666	0.0147666
652.744	0.0146471
652.822	0.0146015
652.900	0.0147104
652.978	0.0148489
653.057	0.0147323
653.135	0.0147210
653.213	0.0147476
653.291	0.0145736
653.369	0.0147884
653.447	0.0146728
653.525	0.0147360
653.603	0.0147654
653.682	0.0148196
653.760	0.0147343
653.838	0.0147202
653.916	0.0148536
653.994	0.0147732
654.072	0.0146054
654.150	0.0146838
654.228	0.0147244
654.307	0.0147523
654.385	0.0146942
654.463	0.0147032
654.541	0.0146791
654.619	0.0147226
654.697	0.0147660
654.775	0.0146919
654.853	0.0148008
654.932	0.0147062
655.010	0.0147794
655.088	0.0146616
655.166	0.0147509
655.244	0.0147390
655.322	0.0147478
655.400	0.0146873
655.478	0.0146397
655.557	0.0147157
655.635	0.0146652
655.713	0.0147672
655.791	0.0147105
655.869	0.0148133
655.947	0.0148383
656.025	0.0148228
656.103	0.0147788
656.182	0.0147159
656.260	0.0146443
656.338	0.0147208
656.416	0.0146567
656.494	0.0146815
656.572	0.0147756
656.650	0.0147012
656.728	0.0147359
656.807	0.0147906
656.885	0.0146167
656.963	0.0145189
657.041	0.0147539
657.119	0.0146369
657.197	0.0146046
657.275	0.0145924
657.353	0.0146288
657.432	0.0147387
657.510	0.0146046
657.588	0.0145808
657.666	0.0146468
657.744	0.0145911
657.822	0.0146707
657.900	0.0147161
657.978	0.0146664
658.057	0.0146161
658.135	0.0146743
658.213	0.0147673
658.291	0.0148196
658.369	0.0148356
658.447	0.0147502
658.525	0.0146449
658.603	0.0147143
658.682	0.0145689
658.760	0.0146410
658.838	0.0146490
658.916	0.0146358
658.994	0.0146814
659.072	0.0146766
659.150	0.0148182
659.228	0.0145694
659.307	0.0145464
659.385	0.0146767
659.463	0.0147037
659.541	0.0147290
659.619	0.0145642
659.697	0.0147101
659.775	0.0146838
659.853	0.0147101
659.932	0.0147587
660.010	0.0147044
660.088	0.0147836
660.166	0.0146475
660.244	0.0147110
660.322	0.0146871
660.400	0.0147731
660.478	0.0147282
660.557	0.0145744
660.635	0.0145628
660.713	0.0146926
660.791	0.0146667
660.869	0.0147607
660.947	0.0146153
661.025	0.0146497
661.103	0.0146519
661.182	0.0146584
661.260	0.0146384
661.338	0.0147466
661.416	0.0146939
661.494	0.0146668
661.572	0.0145837
661.650	0.0147162
661.728	0.0146661
661.807	0.0148048
661.885	0.0148282
661.963	0.0147548
662.041	0.0145905
662.119	0.0146593
662.197	0.0147369
662.275	0.0146024
662.353	0.0147208
662.432	0.0147849
662.510	0.0146516
662.588	0.0147154
662.666	0.0146965
662.744	0.0146386
662.822	0.0146120
662.900	0.0147001
662.978	0.0147400
663.057	0.0148143
663.135	0.0147723
663.213	0.0147691
663.291	0.0146906
663.369	0.0145963
663.447	0.0147457
663.525	0.0146980
663.603	0.0146082
663.682	0.0146212
663.760	0.0146253
663.838	0.0145387
663.916	0.0146266
663.994	0.0145325
664.072	0.0145974
664.150	0.0146023
664.228	0.0146600
664.307	0.0144775
664.385	0.0146939
664.463	0.0146525
664.541	0.0148158
664.619	0.0146706
664.697	0.0147158
664.775	0.0147298
664.853	0.0147878
664.932	0.0147043
665.010	0.0147494
665.088	0.0147724
665.166	0.0147960
665.244	0.0148204
665.322	0.0149451
665.400	0.0149976
665.478	0.0149343
665.557	0.0150005
665.635	0.0150803
665.713	0.0150956
665.791	0.0150363
665.869	0.0149070
665.947	0.0150019
666.025	0.0148762
666.103	0.0147453
666.182	0.0146529
666.260	0.0146813
666.338	0.0145796
666.416	0.0145359
666.494	0.0142848
666.572	0.0142204
666.650	0.0142312
666.728	0.0142329
666.807	0.0142367
666.885	0.0141965
666.963	0.0142191
667.041	0.0142300
667.119	0.0143346
667.197	0.0144495
667.275	0.0146297
667.353	0.0147436
667.432	0.0148464
667.510	0.0149763
667.588	0.0152415
667.666	0.0153410
667.744	0.0153620
667.822	0.0156196
667.900	0.0156931
667.978	0.0157983
668.057	0.0159319
668.135	0.0159335
668.213	0.0159711
668.291	0.0156629
668.369	0.0156939
668.447	0.0155510
668.525	0.0154375
668.603	0.0152650
668.682	0.0147486
668.760	0.0145169
668.838	0.0142385
668.916	0.0140270
668.994	0.0134756
669.072	0.0134486
669.150	0.0131731
669.228	0.0130333
669.307	0.0129527
669.385	0.0127710
669.463	0.0127837
669.541	0.0129706
669.619	0.0129782
669.697	0.0131566
669.775	0.0135789
669.853	0.0136745
669.932	0.0141383
670.010	0.0144743
670.088	0.0150144
670.166	0.0154275
670.244	0.0160255
670.322	0.0163902
670.400	0.0166364
670.478	0.0169862
670.557	0.0172682
670.635	0.0173777
670.713	0.0174864
670.791	0.0174471
670.869	0.0173589
670.947	0.0173039
671.025	0.0171027
671.103	0.0166727
671.182	0.0163526
671.260	0.0158904
671.338	0.0154967
671.416	0.0149063
671.494	0.0144093
671.572	0.0137671
671.650	0.0133759
671.728	0.0129729
671.807	0.0124583
671.885	0.0120507
671.963	0.0119314
672.041	0.0116380
672.119	0.0115199
672.197	0.0114753
672.275	0.0114996
672.353	0.0116898
672.432	0.0117173
672.510	0.0118954
672.588	0.0124482
672.666	0.0130285
672.744	0.0133313
672.822	0.0139644
672.900	0.0144861
672.978	0.0148093
673.057	0.0152457
673.135	0.0156781
673.213	0.0162142
673.291	0.0165400
673.369	0.0168577
673.447	0.0171210
673.525	0.0173745
673.603	0.0174763
673.682	0.0174747
673.760	0.0175465
673.838	0.0174705
673.916	0.0171745
673.994	0.0170818
674.072	0.0168941
674.150	0.0164859
674.228	0.0160720
674.307	0.0158875
674.385	0.0154330
674.463	0.0151535
674.541	0.0149757
674.619	0.0144850
674.697	0.0141813
674.775	0.0138395
674.853	0.0134409
674.932	0.0130977
675.010	0.0128483
675.088	0.0126487
675.166	0.0124701
675.244	0.0123183
675.322	0.0122947
675.400	0.0122028
675.478	0.0121777
675.557	0.0123728
675.635	0.0126469
675.713	0.0126942
675.791	0.0129455
675.869	0.0134167
675.947	0.0136628
676.025	0.0140689
676.103	0.0143812
676.182	0.0148530
676.260	0.0151813
676.338	0.0153419
676.416	0.0157528
676.494	0.0162128
676.572	0.0163658
676.650	0.0164204
676.728	0.0166577
676.807	0.0166507
676.885	0.0166377
676.963	0.0165137
677.041	0.0164745
677.119	0.0161794
677.197	0.0160256
677.275	0.0159654
677.353	0.0157384
677.432	0.0152963
677.510	0.0150600
677.588	0.0148003
677.666	0.0147079
677.744	0.0143941
677.822	0.0142853
677.900	0.0142015
677.978	0.0141708
678.057	0.0139882
678.135	0.0141380
678.213	0.0141285
678.291	0.0140298
678.369	0.0138912
678.447	0.0137717
678.525	0.0139227
678.603	0.0140242
678.682	0.0139084
678.760	0.0139885
678.838	0.0140794
678.916	0.0142481
678.994	0.0143122
679.072	0.0145227
679.150	0.0147257
679.228	0.0149226
679.307	0.0149757
679.385	0.0151852
679.463	0.0153036
679.541	0.0154176
679.619	0.0155486
679.697	0.0155185
679.775	0.0154750
679.853	0.0155762
679.932	0.0156394
680.010	0.0156651
680.088	0.0157307
680.166	0.0154910
680.244	0.0155858
680.322	0.0155367
680.400	0.0153754
680.478	0.0151089
680.557	0.0152530
680.635	0.0150738
680.713	0.0148656
680.791	0.0145652
680.869	0.0143237
680.947	0.0141867
681.025	0.0139657
681.103	0.0137971
681.182	0.0136697
681.260	0.0133842
681.338	0.0132499
681.416	0.0129043
681.494	0.0128237
681.572	0.0127589
681.650	0.0126554
681.728	0.0127452
681.807	0.0126736
681.885	0.0128089
681.963	0.0128346
682.041	0.0130861
682.119	0.0132646
682.197	0.0137164
682.275	0.0139526
682.353	0.0141610
682.432	0.0145819
682.510	0.0149398
682.588	0.0153484
682.666	0.0157833
682.744	0.0161564
682.822	0.0163158
682.900	0.0166010
682.978	0.0169763
683.057	0.0169133
683.135	0.0170042
683.213	0.0171738
683.291	0.0172466
683.369	0.0172996
683.447	0.0172153
683.525	0.0170980
683.603	0.0170352
683.682	0.0170090
683.760	0.0168494
683.838	0.0165427
683.916	0.0165703
683.994	0.0163017
684.072	0.0161178
684.150	0.0159145
684.228	0.0155487
684.307	0.0155605
684.385	0.0152141
684.463	0.0148303
684.541	0.0146304
684.619	0.0143362
684.697	0.0141245
684.775	0.0138708
684.853	0.0135332
684.932	0.0133900
685.010	0.0131278
685.088	0.0128275
685.166	0.0125061
685.244	0.0123205
685.322	0.0123045
685.400	0.0121140
685.478	0.0121732
685.557	0.0120637
685.635	0.0120216
685.713	0.0119931
685.791	0.0119438
685.869	0.0121458
685.947	0.0122179
686.025	0.0123074
686.103	0.0123835
686.182	0.0126400
686.260	0.0129378
686.338	0.0131303
686.416	0.0135278
686.494	0.0138581
686.572	0.0140498
686.650	0.0145454
686.728	0.0147842
686.807	0.0150720
686.885	0.0152760
686.963	0.0155240
687.041	0.0157044
687.119	0.0160950
687.197	0.0162272
687.275	0.0162295
687.353	0.0164293
687.432	0.0166372
687.510	0.0167239
687.588	0.0171501
687.666	0.0174100
687.744	0.0174757
687.822	0.0175163
687.900	0.0176358
687.978	0.0178648
688.057	0.0179246
688.135	0.0179881
688.213	0.0179616
688.291	0.0178393
688.369	0.0177225
688.447	0.0176177
688.525	0.0173744
688.603	0.0172952
688.682	0.0171385
688.760	0.0168456
688.838	0.0163546
688.916	0.0161262
688.994	0.0156413
689.072	0.0154106
689.150	0.0149503
689.228	0.0142843
689.307	0.0137171
689.385	0.0132065
689.463	0.0126607
689.541	0.0121108
689.619	0.0116898
689.697	0.0111515
689.775	0.0107594
689.853	0.0104950
689.932	0.0102377
690.010	0.0100531
690.088	0.0100047
690.166	0.0100729
690.244	0.0100363
690.322	0.0100891
690.400	0.0104653
690.478	0.0106166
690.557	0.0108235
690.635	0.0113813
690.713	0.0116518
690.791	0.0121491
690.869	0.0125359
690.947	0.0129771
691.025	0.0136044
691.103	0.0140208
691.182	0.0146313
691.260	0.0150314
691.338	0.0155462
691.416	0.0158415
691.494	0.0163803
691.572	0.0168427
691.650	0.0170593
691.728	0.0174562
691.807	0.0177653
691.885	0.0178449
691.963	0.0178908
692.041	0.0179248
692.119	0.0180019
692.197	0.0180252
692.275	0.0178669
692.353	0.0175150
692.432	0.0173318
692.510	0.0171870
692.588	0.0169398
692.666	0.0166269
692.744	0.0164812
692.822	0.0163123
692.900	0.0161654
692.978	0.0159477
693.057	0.0157500
693.135	0.0159065
693.213	0.0156548
693.291	0.0156837
693.369	0.0156723
693.447	0.0156594
693.525	0.0157063
693.603	0.0155688
693.682	0.0155466
693.760	0.0155048
693.838	0.0152464
693.916	0.0152216
693.994	0.0148148
694.072	0.0146835
694.150	0.0143185
694.228	0.0141185
694.307	0.0137566
694.385	0.0135614
694.463	0.0134329
694.541	0.0130506
694.619	0.0126148
694.697	0.0124118
694.775	0.0121354
694.853	0.0120165
694.932	0.0118477
695.010	0.0115701
695.088	0.0115024
695.166	0.0113221
695.244	0.0111421
695.322	0.0109774
695.400	0.0111058
695.478	0.0111970
695.557	0.0111585
695.635	0.0113992
695.713	0.0115491
695.791	0.0117131
695.869	0.0121165
695.947	0.0125414
696.025	0.0127722
696.103	0.0130039
696.182	0.0137486
696.260	0.0141441
696.338	0.0146534
696.416	0.0150852
696.494	0.0155863
696.572	0.0159991
696.650	0.0166325
696.728	0.0170282
696.807	0.0172208
696.885	0.0176359
696.963	0.0179968
697.041	0.0182330
697.119	0.0184103
697.197	0.0186406
697.275	0.0184728
697.353	0.0184438
697.432	0.0184235
697.510	0.0182028
697.588	0.0179080
697.666	0.0176727
697.744	0.0173676
697.822	0.0170443
697.900	0.0166406
697.978	0.0164185
698.057	0.0159968
698.135	0.0155164
698.213	0.0153368
698.291	0.0148491
698.369	0.0143860
698.447	0.0141164
698.525	0.0138959
698.603	0.0136868
698.682	0.0133475
698.760	0.0131509
698.838	0.0128322
698.916	0.0129078
698.994	0.0129956
699.072	0.0130328
699.150	0.0130276
699.228	0.0132517
699.307	0.0134827
699.385	0.0136561
699.463	0.0139610
699.541	0.0142049
699.619	0.0144299
699.697	0.0145889
699.775	0.0148999
699.853	0.0151491
699.932	0.0152860
700.010	0.0153232
700.088	0.0153478
700.166	0.0153233
700.244	0.0152281
700.322	0.0149465
700.400	0.0148446
700.478	0.0144663
700.557	0.0141207
700.635	0.0137925
700.713	0.0135381
700.791	0.0132500
700.869	0.0130233
700.947	0.0127997
701.025	0.0126691
701.103	0.0124715
701.182	0.0125320
701.260	0.0124837
701.338	0.0124912
701.416	0.0126868
701.494	0.0127631
701.572	0.0128751
701.650	0.0131593
701.728	0.0132868
701.807	0.0135011
701.885	0.0137912
701.963	0.0140839
702.041	0.0143187
702.119	0.0147207
702.197	0.0150146
702.275	0.0151524
702.353	0.0154692
702.432	0.0158769
702.510	0.0160708
702.588	0.0163534
702.666	0.0165910
702.744	0.0168345
702.822	0.0170609
702.900	0.0171129
702.978	0.0172675
703.057	0.0173266
703.135	0.0173359
703.213	0.0172264
703.291	0.0171078
703.369	0.0169206
703.447	0.0169511
703.525	0.0168491
703.603	0.0166386
703.682	0.0165393
703.760	0.0161524
703.838	0.0159454
703.916	0.0158420
703.994	0.0156078
704.072	0.0151947
704.150	0.0151077
704.228	0.0148376
704.307	0.0146478
704.385	0.0144235
704.463	0.0142415
704.541	0.0139416
704.619	0.0136844
704.697	0.0137409
704.775	0.0136734
704.853	0.0136105
704.932	0.0134151
705.010	0.0134651
705.088	0.0135178
705.166	0.0135632
705.244	0.0135421
705.322	0.0136858
705.400	0.0137779
705.478	0.0137652
705.557	0.0138920
705.635	0.0139951
705.713	0.0137708
705.791	0.0139035
705.869	0.0138994
705.947	0.0138836
706.025	0.0138834
706.103	0.0138656
706.182	0.0137525
706.260	0.0138978
706.338	0.0138653
706.416	0.0136892
706.494	0.0137826
706.572	0.0138844
706.650	0.0141631
706.728	0.0142142
706.807	0.0143213
706.885	0.0145643
706.963	0.0148036
707.041	0.0149883
707.119	0.0150848
707.197	0.0153796
707.275	0.0156072
707.353	0.0156931
707.432	0.0158747
707.510	0.0159758
707.588	0.0158322
707.666	0.0157117
707.744	0.0157676
707.822	0.0155151
707.900	0.0155401
707.978	0.0154078
708.057	0.0153794
708.135	0.0152986
708.213	0.0150085
708.291	0.0149153
708.369	0.0148195
708.447	0.0146133
708.525	0.0146125
708.603	0.0145432
708.682	0.0144942
708.760	0.0145725
708.838	0.0146441
708.916	0.0145592
708.994	0.0144945
709.072	0.0144510
709.150	0.0144253
709.228	0.0144238
709.307	0.0144162
709.385	0.0145576
709.463	0.0143462
709.541	0.0142971
709.619	0.0143629
709.697	0.0143488
709.775	0.0142284
709.853	0.0142030
709.932	0.0144180
710.010	0.0145679
710.088	0.0145153
710.166	0.0146603
710.244	0.0147897
710.322	0.0150110
710.400	0.0150006
710.478	0.0152726
710.557	0.0154652
710.635	0.0156115
710.713	0.0158338
710.791	0.0158086
710.869	0.0159710
710.947	0.0160056
711.025	0.0160269
711.103	0.0158341
711.182	0.0159613
711.260	0.0158142
711.338	0.0155864
711.416	0.0154324
711.494	0.0153349
711.572	0.0152908
711.650	0.0151127
711.728	0.0149530
711.807	0.0148801
711.885	0.0148000
711.963	0.0145406
712.041	0.0144047
712.119	0.0141979
712.197	0.0140818
712.275	0.0137411
712.353	0.0137209
712.432	0.0135087
712.510	0.0133302
712.588	0.0131343
712.666	0.0130801
712.744	0.0130456
712.822	0.0131178
712.900	0.0128728
712.978	0.0130350
713.057	0.0129860
713.135	0.0131937
713.213	0.0131279
713.291	0.0133293
713.369	0.0134717
713.447	0.0138859
713.525	0.0139971
713.603	0.0140583
713.682	0.0141841
713.760	0.0144170
713.838	0.0146106
713.916	0.0147492
713.994	0.0148434
714.072	0.0151524
714.150	0.0150996
714.228	0.0153111
714.307	0.0153627
714.385	0.0153559
714.463	0.0153699
714.541	0.0153862
714.619	0.0154401
714.697	0.0154459
714.775	0.0153848
714.853	0.0151525
714.932	0.0152304
715.010	0.0152364
715.088	0.0150761
715.166	0.0149339
715.244	0.0148151
715.322	0.0147494
715.400	0.0148490
715.478	0.0147584
715.557	0.0148296
715.635	0.0146700
715.713	0.0146822
715.791	0.0148159
715.869	0.0146491
715.947	0.0146985
716.025	0.0146198
716.103	0.0147251
716.182	0.0147723
716.260	0.0147274
716.338	0.0146936
716.416	0.0148925
716.494	0.0148434
716.572	0.0148975
716.650	0.0150746
716.728	0.0151795
716.807	0.0152580
716.885	0.0151755
716.963	0.0151715
717.041	0.0151701
717.119	0.0150950
717.197	0.0150864
717.275	0.0149818
717.353	0.0149943
717.432	0.0149472
717.510	0.0148943
717.588	0.0146622
717.666	0.0148598
717.744	0.0148019
717.822	0.0147116
717.900	0.0146516
717.978	0.0146369
718.057	0.0146214
718.135	0.0147054
718.213	0.0146292
718.291	0.0144617
718.369	0.0145683
718.447	0.0145882
718.525	0.0143568
718.603	0.0143982
718.682	0.0143983
718.760	0.0142809
718.838	0.0141074
718.916	0.0140550
718.994	0.0138626
719.072	0.0138562
719.150	0.0136433
719.228	0.0135435
719.307	0.0134274
719.385	0.0132752
719.463	0.0132359
719.541	0.0129948
719.619	0.0129033
719.697	0.0128904
719.775	0.0129723
719.853	0.0129194
719.932	0.0128301
720.010	0.0128819
720.088	0.0130111
720.166	0.0132072
720.244	0.0132182
720.322	0.0135492
720.400	0.0138681
720.478	0.0141396
720.557	0.0142664
720.635	0.0145538
720.713	0.0148348
720.791	0.0150912
720.869	0.0153643
720.947	0.0154115
721.025	0.0155836
721.103	0.0157744
721.182	0.0158558
721.260	0.0157738
721.338	0.0158825
721.416	0.0160059
721.494	0.0159827
721.572	0.0159921
721.650	0.0160739
721.728	0.0162363
721.807	0.0161897
721.885	0.0162543
721.963	0.0162707
722.041	0.0162681
722.119	0.0160931
722.197	0.0161841
722.275	0.0162256
722.353	0.0159114
722.432	0.0159366
722.510	0.0157111
722.588	0.0157021
722.666	0.0154150
722.744	0.0152238
722.822	0.0151675
722.900	0.0151172
722.978	0.0149802
723.057	0.0148765
723.135	0.0148050
723.213	0.0145576
723.291	0.0145629
723.369	0.0145680
723.447	0.0146417
723.525	0.0145853
723.603	0.0147010
723.682	0.0145600
723.760	0.0146489
723.838	0.0145908
723.916	0.0147025
723.994	0.0146346
724.072	0.0144526
724.150	0.0144192
724.228	0.0143951
724.307	0.0143326
724.385	0.0141601
724.463	0.0142874
724.541	0.0141972
724.619	0.0141309
724.697	0.0140376
724.775	0.0138859
724.853	0.0138124
724.932	0.0138442
725.010	0.0137602
725.088	0.0135847
725.166	0.0136596
725.244	0.0136771
725.322	0.0136424
725.400	0.0135704
725.478	0.0134815
725.557	0.0134608
725.635	0.0135060
725.713	0.0134374
725.791	0.0134650
725.869	0.0136761
725.947	0.0135548
726.025	0.0135503
726.103	0.0135811
726.182	0.0136398
726.260	0.0139407
726.338	0.0139892
726.416	0.0142642
726.494	0.0145930
726.572	0.0147945
726.650	0.0149408
726.728	0.0151914
726.807	0.0153218
726.885	0.0155746
726.963	0.0157897
727.041	0.0156904
727.119	0.0159700
727.197	0.0162408
727.275	0.0162672
727.353	0.0163508
727.432	0.0162975
727.510	0.0163911
727.588	0.0163725
727.666	0.0163028
727.744	0.0163311
727.822	0.0163464
727.900	0.0161161
727.978	0.0160108
728.057	0.0158932
728.135	0.0158388
728.213	0.0157674
728.291	0.0157899
728.369	0.0155743
728.447	0.0155273
728.525	0.0155431
728.603	0.0153650
728.682	0.0154516
728.760	0.0152129
728.838	0.0151433
728.916	0.0150990
728.994	0.0150113
729.072	0.0148072
729.150	0.0146983
729.228	0.0146491
729.307	0.0145578
729.385	0.0146914
729.463	0.0145667
729.541	0.0143479
729.619	0.0143896
729.697	0.0142780
729.775	0.0141658
729.853	0.0141458
729.932	0.0139780
730.010	0.0140254
730.088	0.0140140
730.166	0.0140150
730.244	0.0139054
730.322	0.0138528
730.400	0.0138742
730.478	0.0137672
730.557	0.0136535
730.635	0.0137897
730.713	0.0138046
730.791	0.0137565
730.869	0.0138341
730.947	0.0140536
731.025	0.0141332
731.103	0.0142544
731.182	0.0143073
731.260	0.0142648
731.338	0.0144099
731.416	0.0144356
731.494	0.0143714
731.572	0.0145658
731.650	0.0145067
731.728	0.0143487
731.807	0.0144952
731.885	0.0145165
731.963	0.0143967
732.041	0.0144193
732.119	0.0146123
732.197	0.0145080
732.275	0.0145174
732.353	0.0145544
732.432	0.0146227
732.510	0.0146013
732.588	0.0146803
732.666	0.0147154
732.744	0.0148367
732.822	0.0147958
732.900	0.0148035
732.978	0.0149369
733.057	0.0151483
733.135	0.0150148
733.213	0.0152905
733.291	0.0153137
733.369	0.0151563
733.447	0.0152714
733.525	0.0152256
733.603	0.0152199
733.682	0.0153905
733.760	0.0153255
733.838	0.0153088
733.916	0.0153278
733.994	0.0152232
734.072	0.0150743
734.150	0.0152698
734.228	0.0151271
734.307	0.0151176
734.385	0.0150209
734.463	0.0150655
734.541	0.0149733
734.619	0.0150835
734.697	0.0150179
734.775	0.0150294
734.853	0.0150344
734.932	0.0149149
735.010	0.0149475
735.088	0.0148611
735.166	0.0147047
735.244	0.0148907
735.322	0.0148784
735.400	0.0145435
735.478	0.0144619
735.557	0.0144936
735.635	0.0141930
735.713	0.0143028
