05/14/2022	19:30:30	Ver.	4.1	UNKNOWN
Optical Delay	650.009681	Delta X		0.078125	Sweeps	1	Scan Rate	0/0
Coordinates	Axis 1	NaN	Axis 2	NaN	Axis 3	NaN	Axis 4	NaN	Axis 5	NaN	Axis 6	0.000000
TX Power	0.000000	RX Power	0.000000

650.010	0.0141735
650.088	0.0143159
650.166	0.0141444
650.244	0.0142207
650.322	0.0142598
650.400	0.0140628
650.478	0.0141716
650.557	0.0141048
650.635	0.0141643
650.713	0.0141953
650.791	0.0142740
650.869	0.0142010
650.947	0.0139992
651.025	0.0142818
651.103	0.0142358
651.182	0.0141807
651.260	0.0140948
651.338	0.0142228
651.416	0.0143327
651.494	0.0141867
651.572	0.0141770
651.650	0.0142157
651.728	0.0141406
651.807	0.0141998
651.885	0.0142091
651.963	0.0141820
652.041	0.0140939
652.119	0.0141919
652.197	0.0143735
652.275	0.0143327
652.353	0.0142739
652.432	0.0142451
652.510	0.0142379
652.588	0.0141793
652.666	0.0142227
652.744	0.0142103
652.822	0.0142535
652.900	0.0142165
652.978	0.0141898
653.057	0.0142701
653.135	0.0143354
653.213	0.0142384
653.291	0.0142400
653.369	0.0141982
653.447	0.0141289
653.525	0.0141747
653.603	0.0141592
653.682	0.0141383
653.760	0.0142285
653.838	0.0140934
653.916	0.0141467
653.994	0.0141808
654.072	0.0140303
654.150	0.0141769
654.228	0.0140740
654.307	0.0140180
654.385	0.0139942
654.463	0.0140965
654.541	0.0141015
654.619	0.0140955
654.697	0.0140939
654.775	0.0139777
654.853	0.0139806
654.932	0.0140237
655.010	0.0142377
655.088	0.0140192
655.166	0.0141216
655.244	0.0139133
655.322	0.0141018
655.400	0.0141628
655.478	0.0140076
655.557	0.0140878
655.635	0.0141572
655.713	0.0140942
655.791	0.0139909
655.869	0.0140913
655.947	0.0139925
656.025	0.0139973
656.103	0.0140111
656.182	0.0143124
656.260	0.0141911
656.338	0.0140240
656.416	0.0140423
656.494	0.0140356
656.572	0.0140488
656.650	0.0140096
656.728	0.0140592
656.807	0.0141013
656.885	0.0141060
656.963	0.0140297
657.041	0.0142233
657.119	0.0141140
657.197	0.0140508
657.275	0.0143570
657.353	0.0142110
657.432	0.0141343
657.510	0.0141928
657.588	0.0141571
657.666	0.0141441
657.744	0.0141840
657.822	0.0141624
657.900	0.0141169
657.978	0.0140244
658.057	0.0139886
658.135	0.0141510
658.213	0.0140990
658.291	0.0141611
658.369	0.0141528
658.447	0.0142352
658.525	0.0139578
658.603	0.0140606
658.682	0.0140408
658.760	0.0139444
658.838	0.0140724
658.916	0.0140768
658.994	0.0140831
659.072	0.0140598
659.150	0.0140455
659.228	0.0140211
659.307	0.0141454
659.385	0.0138905
659.463	0.0141352
659.541	0.0140182
659.619	0.0141614
659.697	0.0139603
659.775	0.0139974
659.853	0.0141402
659.932	0.0142043
660.010	0.0139409
660.088	0.0138982
660.166	0.0140833
660.244	0.0140785
660.322	0.0139244
660.400	0.0140488
660.478	0.0139264
660.557	0.0140232
660.635	0.0139723
660.713	0.0140779
660.791	0.0139398
660.869	0.0140710
660.947	0.0140347
661.025	0.0140268
661.103	0.0141143
661.182	0.0139496
661.260	0.0140102
661.338	0.0140040
661.416	0.0140584
661.494	0.0140860
661.572	0.0139866
661.650	0.0142393
661.728	0.0140642
661.807	0.0141264
661.885	0.0140309
661.963	0.0139772
662.041	0.0141000
662.119	0.0139700
662.197	0.0138595
662.275	0.0141615
662.353	0.0140977
662.432	0.0140721
662.510	0.0140833
662.588	0.0140047
662.666	0.0141721
662.744	0.0141397
662.822	0.0141730
662.900	0.0142323
662.978	0.0141685
663.057	0.0140800
663.135	0.0141143
663.213	0.0140511
663.291	0.0143486
663.369	0.0141129
663.447	0.0141001
663.525	0.0143167
663.603	0.0142886
663.682	0.0141704
663.760	0.0141525
663.838	0.0142088
663.916	0.0141402
663.994	0.0140894
664.072	0.0140874
664.150	0.0138871
664.228	0.0138487
664.307	0.0138557
664.385	0.0138788
664.463	0.0137885
664.541	0.0136678
664.619	0.0135923
664.697	0.0135410
664.775	0.0136260
664.853	0.0136742
664.932	0.0135641
665.010	0.0135073
665.088	0.0136371
665.166	0.0137209
665.244	0.0137701
665.322	0.0138850
665.400	0.0142285
665.478	0.0142259
665.557	0.0142168
665.635	0.0143190
665.713	0.0143687
665.791	0.0146853
665.869	0.0147606
665.947	0.0149078
666.025	0.0148493
666.103	0.0148766
666.182	0.0149944
666.260	0.0151650
666.338	0.0149325
666.416	0.0149599
666.494	0.0149704
666.572	0.0146456
666.650	0.0145071
666.728	0.0144347
666.807	0.0140667
666.885	0.0138839
666.963	0.0135350
667.041	0.0132681
667.119	0.0132110
667.197	0.0130258
667.275	0.0127013
667.353	0.0125875
667.432	0.0125000
667.510	0.0123588
667.588	0.0124507
667.666	0.0123883
667.744	0.0125423
667.822	0.0126945
667.900	0.0129574
667.978	0.0129306
668.057	0.0134919
668.135	0.0140092
668.213	0.0142219
668.291	0.0147031
668.369	0.0151154
668.447	0.0153905
668.525	0.0158859
668.603	0.0161379
668.682	0.0163822
668.760	0.0165071
668.838	0.0166954
668.916	0.0167407
668.994	0.0168241
669.072	0.0166473
669.150	0.0164473
669.228	0.0161616
669.307	0.0157574
669.385	0.0154790
669.463	0.0148531
669.541	0.0145374
669.619	0.0140546
669.697	0.0136822
669.775	0.0131178
669.853	0.0125814
669.932	0.0122356
670.010	0.0119436
670.088	0.0115932
670.166	0.0112024
670.244	0.0109322
670.322	0.0108784
670.400	0.0109544
670.478	0.0110654
670.557	0.0111227
670.635	0.0114188
670.713	0.0115005
670.791	0.0119883
670.869	0.0124521
670.947	0.0130139
671.025	0.0132949
671.103	0.0139510
671.182	0.0145766
671.260	0.0151124
671.338	0.0156763
671.416	0.0161938
671.494	0.0165180
671.572	0.0169363
671.650	0.0172527
671.728	0.0174609
671.807	0.0175795
671.885	0.0176882
671.963	0.0176091
672.041	0.0173806
672.119	0.0171548
672.197	0.0170517
672.275	0.0165915
672.353	0.0161437
672.432	0.0156653
672.510	0.0152117
672.588	0.0149264
672.666	0.0143571
672.744	0.0138421
672.822	0.0135538
672.900	0.0131231
672.978	0.0126379
673.057	0.0123498
673.135	0.0121593
673.213	0.0117777
673.291	0.0116470
673.369	0.0115249
673.447	0.0113268
673.525	0.0114426
673.603	0.0113306
673.682	0.0112825
673.760	0.0114453
673.838	0.0117991
673.916	0.0119746
673.994	0.0124229
674.072	0.0126996
674.150	0.0130466
674.228	0.0133493
674.307	0.0138109
674.385	0.0141099
674.463	0.0145771
674.541	0.0148452
674.619	0.0150911
674.697	0.0153528
674.775	0.0155903
674.853	0.0157463
674.932	0.0159324
675.010	0.0159863
675.088	0.0159126
675.166	0.0159750
675.244	0.0159412
675.322	0.0156905
675.400	0.0156558
675.478	0.0154472
675.557	0.0152708
675.635	0.0149733
675.713	0.0148167
675.791	0.0146179
675.869	0.0144497
675.947	0.0142538
676.025	0.0138819
676.103	0.0138704
676.182	0.0137967
676.260	0.0136493
676.338	0.0135830
676.416	0.0135213
676.494	0.0135537
676.572	0.0135043
676.650	0.0134608
676.728	0.0135623
676.807	0.0136502
676.885	0.0135918
676.963	0.0136108
677.041	0.0136850
677.119	0.0135474
677.197	0.0136024
677.275	0.0135066
677.353	0.0135332
677.432	0.0134559
677.510	0.0133592
677.588	0.0133206
677.666	0.0132769
677.744	0.0131799
677.822	0.0130925
677.900	0.0133681
677.978	0.0133974
678.057	0.0134225
678.135	0.0134647
678.213	0.0134841
678.291	0.0136506
678.369	0.0137021
678.447	0.0140091
678.525	0.0139676
678.603	0.0141796
678.682	0.0142981
678.760	0.0143615
678.838	0.0144479
678.916	0.0144098
678.994	0.0146346
679.072	0.0146327
679.150	0.0147105
679.228	0.0145874
679.307	0.0147799
679.385	0.0146592
679.463	0.0145409
679.541	0.0145586
679.619	0.0145238
679.697	0.0141969
679.775	0.0141232
679.853	0.0137536
679.932	0.0137843
680.010	0.0135490
680.088	0.0133295
680.166	0.0131211
680.244	0.0129771
680.322	0.0128391
680.400	0.0126741
680.478	0.0127129
680.557	0.0127299
680.635	0.0127310
680.713	0.0130021
680.791	0.0132301
680.869	0.0134400
680.947	0.0135845
681.025	0.0139170
681.103	0.0142353
681.182	0.0145255
681.260	0.0147974
681.338	0.0150597
681.416	0.0152433
681.494	0.0154836
681.572	0.0157536
681.650	0.0158717
681.728	0.0161057
681.807	0.0161257
681.885	0.0159444
681.963	0.0159849
682.041	0.0159610
682.119	0.0158911
682.197	0.0158324
682.275	0.0156704
682.353	0.0153489
682.432	0.0151608
682.510	0.0148876
682.588	0.0145101
682.666	0.0141760
682.744	0.0138868
682.822	0.0135810
682.900	0.0134235
682.978	0.0132222
683.057	0.0129685
683.135	0.0127277
683.213	0.0124731
683.291	0.0126652
683.369	0.0125590
683.447	0.0123759
683.525	0.0124201
683.603	0.0124114
683.682	0.0122060
683.760	0.0121564
683.838	0.0120542
683.916	0.0121234
683.994	0.0120705
684.072	0.0120190
684.150	0.0121183
684.228	0.0122112
684.307	0.0123286
684.385	0.0125706
684.463	0.0125807
684.541	0.0128915
684.619	0.0131139
684.697	0.0133567
684.775	0.0136742
684.853	0.0138315
684.932	0.0140765
685.010	0.0143296
685.088	0.0145010
685.166	0.0144885
685.244	0.0146722
685.322	0.0147714
685.400	0.0148518
685.478	0.0148643
685.557	0.0149989
685.635	0.0150771
685.713	0.0152297
685.791	0.0154690
685.869	0.0156435
685.947	0.0156075
686.025	0.0157359
686.103	0.0158502
686.182	0.0159951
686.260	0.0161382
686.338	0.0162675
686.416	0.0162267
686.494	0.0162768
686.572	0.0161758
686.650	0.0161149
686.728	0.0160384
686.807	0.0157896
686.885	0.0157055
686.963	0.0154831
687.041	0.0153624
687.119	0.0150932
687.197	0.0148573
687.275	0.0145443
687.353	0.0144880
687.432	0.0143723
687.510	0.0141650
687.588	0.0138883
687.666	0.0137351
687.744	0.0136490
687.822	0.0133430
687.900	0.0132935
687.978	0.0131652
688.057	0.0129173
688.135	0.0129178
688.213	0.0126109
688.291	0.0121622
688.369	0.0121722
688.447	0.0118530
688.525	0.0116408
688.603	0.0112468
688.682	0.0110573
688.760	0.0109543
688.838	0.0107762
688.916	0.0106767
688.994	0.0105633
689.072	0.0105547
689.150	0.0105347
689.228	0.0104745
689.307	0.0106824
689.385	0.0108539
689.463	0.0111040
689.541	0.0114079
689.619	0.0118405
689.697	0.0122002
689.775	0.0127335
689.853	0.0131870
689.932	0.0137500
690.010	0.0141838
690.088	0.0148717
690.166	0.0155109
690.244	0.0159712
690.322	0.0166199
690.400	0.0174448
690.478	0.0178068
690.557	0.0182475
690.635	0.0187494
690.713	0.0190885
690.791	0.0192184
690.869	0.0192342
690.947	0.0194697
691.025	0.0194178
691.103	0.0194199
691.182	0.0190786
691.260	0.0188210
691.338	0.0185387
691.416	0.0181389
691.494	0.0176900
691.572	0.0173038
691.650	0.0167574
691.728	0.0161137
691.807	0.0156127
691.885	0.0150518
691.963	0.0143378
692.041	0.0138136
692.119	0.0132023
692.197	0.0125346
692.275	0.0119043
692.353	0.0114238
692.432	0.0108350
692.510	0.0103949
692.588	0.00998886
692.666	0.00974197
692.744	0.00935493
692.822	0.00943924
692.900	0.00956642
692.978	0.00952431
693.057	0.00982323
693.135	0.0102320
693.213	0.0105849
693.291	0.0109357
693.369	0.0114397
693.447	0.0117967
693.525	0.0123443
693.603	0.0128762
693.682	0.0132917
693.760	0.0137431
693.838	0.0140212
693.916	0.0143985
693.994	0.0143768
694.072	0.0145827
694.150	0.0148472
694.228	0.0148216
694.307	0.0146980
694.385	0.0146933
694.463	0.0144901
694.541	0.0143520
694.619	0.0142552
694.697	0.0140505
694.775	0.0139148
694.853	0.0136794
694.932	0.0137817
695.010	0.0137198
695.088	0.0136465
695.166	0.0136857
695.244	0.0138795
695.322	0.0140581
695.400	0.0142621
695.478	0.0145918
695.557	0.0148673
695.635	0.0151643
695.713	0.0153822
695.791	0.0158362
695.869	0.0162680
695.947	0.0164043
696.025	0.0168369
696.103	0.0170232
696.182	0.0171046
696.260	0.0173401
696.338	0.0172597
696.416	0.0174252
696.494	0.0173863
696.572	0.0172292
696.650	0.0172309
696.728	0.0168165
696.807	0.0166370
696.885	0.0163185
696.963	0.0161339
697.041	0.0157790
697.119	0.0154364
697.197	0.0150596
697.275	0.0145735
697.353	0.0141928
697.432	0.0137314
697.510	0.0133096
697.588	0.0127805
697.666	0.0124608
697.744	0.0120078
697.822	0.0118185
697.900	0.0114244
697.978	0.0112315
698.057	0.0110141
698.135	0.0110361
698.213	0.0107990
698.291	0.0107264
698.369	0.0107735
698.447	0.0107694
698.525	0.0108990
698.603	0.0110387
698.682	0.0111079
698.760	0.0113489
698.838	0.0115383
698.916	0.0115274
698.994	0.0119223
699.072	0.0121822
699.150	0.0124282
699.228	0.0126668
699.307	0.0128934
699.385	0.0129413
699.463	0.0133233
699.541	0.0135842
699.619	0.0140176
699.697	0.0144012
699.775	0.0144212
699.853	0.0147015
699.932	0.0148532
700.010	0.0149710
700.088	0.0151646
700.166	0.0150726
700.244	0.0148662
700.322	0.0148006
700.400	0.0147498
700.478	0.0147080
700.557	0.0145362
700.635	0.0144564
700.713	0.0145574
700.791	0.0144806
700.869	0.0145349
700.947	0.0145538
701.025	0.0146622
701.103	0.0148321
701.182	0.0150022
701.260	0.0153268
701.338	0.0155969
701.416	0.0156522
701.494	0.0159790
701.572	0.0161845
701.650	0.0162845
701.728	0.0164342
701.807	0.0166213
701.885	0.0167525
701.963	0.0166692
702.041	0.0166831
702.119	0.0163514
702.197	0.0163840
702.275	0.0161784
702.353	0.0158992
702.432	0.0156364
702.510	0.0151852
702.588	0.0146783
702.666	0.0143723
702.744	0.0138979
702.822	0.0135594
702.900	0.0133872
702.978	0.0128173
703.057	0.0124658
703.135	0.0121526
703.213	0.0118314
703.291	0.0117109
703.369	0.0116254
703.447	0.0113258
703.525	0.0114288
703.603	0.0114623
703.682	0.0114832
703.760	0.0115894
703.838	0.0117302
703.916	0.0119139
703.994	0.0119855
704.072	0.0122334
704.150	0.0123585
704.228	0.0125408
704.307	0.0125595
704.385	0.0126422
704.463	0.0127700
704.541	0.0128143
704.619	0.0131469
704.697	0.0130671
704.775	0.0133413
704.853	0.0133311
704.932	0.0133453
705.010	0.0132433
705.088	0.0134541
705.166	0.0135265
705.244	0.0136711
705.322	0.0139336
705.400	0.0139582
705.478	0.0141235
705.557	0.0140614
705.635	0.0141610
705.713	0.0143899
705.791	0.0144576
705.869	0.0145288
705.947	0.0147646
706.025	0.0147827
706.103	0.0148222
706.182	0.0148388
706.260	0.0150539
706.338	0.0152428
706.416	0.0153574
706.494	0.0154417
706.572	0.0155647
706.650	0.0155750
706.728	0.0157102
706.807	0.0159090
706.885	0.0158095
706.963	0.0158911
707.041	0.0160748
707.119	0.0158586
707.197	0.0157915
707.275	0.0157095
707.353	0.0157496
707.432	0.0155280
707.510	0.0151972
707.588	0.0150667
707.666	0.0148610
707.744	0.0145515
707.822	0.0142934
707.900	0.0139647
707.978	0.0135014
708.057	0.0131870
708.135	0.0130952
708.213	0.0127290
708.291	0.0127766
708.369	0.0125418
708.447	0.0123071
708.525	0.0123489
708.603	0.0122653
708.682	0.0124365
708.760	0.0124759
708.838	0.0125759
708.916	0.0128751
708.994	0.0130967
709.072	0.0132704
709.150	0.0135298
709.228	0.0137272
709.307	0.0138351
709.385	0.0140434
709.463	0.0141363
709.541	0.0142367
709.619	0.0143486
709.697	0.0145151
709.775	0.0146047
709.853	0.0147502
709.932	0.0147218
710.010	0.0146684
710.088	0.0149305
710.166	0.0148215
710.244	0.0148621
710.322	0.0147488
710.400	0.0147430
710.478	0.0146217
710.557	0.0144108
710.635	0.0143813
710.713	0.0143196
710.791	0.0141629
710.869	0.0138995
710.947	0.0137926
711.025	0.0137579
711.103	0.0135521
711.182	0.0135290
711.260	0.0134370
711.338	0.0132384
711.416	0.0134734
711.494	0.0132268
711.572	0.0131274
711.650	0.0131389
711.728	0.0131586
711.807	0.0131153
711.885	0.0131221
711.963	0.0133390
712.041	0.0133888
712.119	0.0135523
712.197	0.0135237
712.275	0.0138154
712.353	0.0139606
712.432	0.0140839
712.510	0.0142501
712.588	0.0145843
712.666	0.0145898
712.744	0.0147562
712.822	0.0148801
712.900	0.0149075
712.978	0.0152081
713.057	0.0153965
713.135	0.0152203
713.213	0.0153625
713.291	0.0153821
713.369	0.0153516
713.447	0.0154001
713.525	0.0151834
713.603	0.0150591
713.682	0.0149181
713.760	0.0148719
713.838	0.0145392
713.916	0.0145586
713.994	0.0141808
714.072	0.0140018
714.150	0.0139411
714.228	0.0139244
714.307	0.0139183
714.385	0.0137595
714.463	0.0139080
714.541	0.0137064
714.619	0.0138439
714.697	0.0139299
714.775	0.0140163
714.853	0.0141710
714.932	0.0142946
715.010	0.0143823
715.088	0.0146703
715.166	0.0145989
715.244	0.0145549
715.322	0.0146911
715.400	0.0146242
715.478	0.0147296
715.557	0.0144894
715.635	0.0143509
715.713	0.0142575
715.791	0.0142068
715.869	0.0140589
715.947	0.0139394
716.025	0.0137890
716.103	0.0136533
716.182	0.0134805
716.260	0.0133659
716.338	0.0132298
716.416	0.0132959
716.494	0.0130991
716.572	0.0130695
716.650	0.0129965
716.728	0.0128683
716.807	0.0130630
716.885	0.0129762
716.963	0.0129808
717.041	0.0131437
717.119	0.0133044
717.197	0.0134370
717.275	0.0136582
717.353	0.0136287
717.432	0.0136877
717.510	0.0138869
717.588	0.0139909
717.666	0.0141062
717.744	0.0141474
717.822	0.0143325
717.900	0.0143835
717.978	0.0144235
718.057	0.0144256
718.135	0.0144740
718.213	0.0143399
718.291	0.0143210
718.369	0.0142626
718.447	0.0141294
718.525	0.0141952
718.603	0.0141694
718.682	0.0140704
718.760	0.0140276
718.838	0.0141051
718.916	0.0140987
718.994	0.0139918
719.072	0.0140014
719.150	0.0140177
719.228	0.0140449
719.307	0.0137460
719.385	0.0138324
719.463	0.0139501
719.541	0.0139347
719.619	0.0138412
719.697	0.0139332
719.775	0.0139452
719.853	0.0139328
719.932	0.0141483
720.010	0.0141538
720.088	0.0140026
720.166	0.0141656
720.244	0.0142255
720.322	0.0144004
720.400	0.0142616
720.478	0.0141715
720.557	0.0142430
720.635	0.0141962
720.713	0.0141324
720.791	0.0142898
720.869	0.0143156
720.947	0.0140987
721.025	0.0142470
721.103	0.0142964
721.182	0.0144140
721.260	0.0145661
721.338	0.0143246
721.416	0.0144550
721.494	0.0144897
721.572	0.0146353
721.650	0.0147107
721.728	0.0148416
721.807	0.0145454
721.885	0.0147119
721.963	0.0146069
722.041	0.0143840
722.119	0.0144202
722.197	0.0142973
722.275	0.0141465
722.353	0.0140556
722.432	0.0140417
722.510	0.0138609
722.588	0.0136674
722.666	0.0136902
722.744	0.0135460
722.822	0.0135619
722.900	0.0133584
722.978	0.0134736
723.057	0.0135116
723.135	0.0133786
723.213	0.0133449
723.291	0.0133083
723.369	0.0133707
723.447	0.0133085
723.525	0.0132571
723.603	0.0132627
723.682	0.0133006
723.760	0.0133223
723.838	0.0132315
723.916	0.0131602
723.994	0.0131565
724.072	0.0131470
724.150	0.0131213
724.228	0.0132622
724.307	0.0131905
724.385	0.0132552
724.463	0.0133005
724.541	0.0133699
724.619	0.0135019
724.697	0.0135225
724.775	0.0136649
724.853	0.0136739
724.932	0.0138588
725.010	0.0137862
725.088	0.0139761
725.166	0.0139432
725.244	0.0141545
725.322	0.0142304
725.400	0.0143960
725.478	0.0144978
725.557	0.0145821
725.635	0.0146407
725.713	0.0147661
725.791	0.0149045
725.869	0.0149657
725.947	0.0150090
726.025	0.0150692
726.103	0.0153278
726.182	0.0154206
726.260	0.0152847
726.338	0.0152728
726.416	0.0153521
726.494	0.0153838
726.572	0.0152558
726.650	0.0152509
726.728	0.0151161
726.807	0.0149850
726.885	0.0150633
726.963	0.0148434
727.041	0.0147350
727.119	0.0146103
727.197	0.0146832
727.275	0.0145056
727.353	0.0143630
727.432	0.0143709
727.510	0.0142970
727.588	0.0143275
727.666	0.0142154
727.744	0.0140845
727.822	0.0140667
727.900	0.0140894
727.978	0.0140075
728.057	0.0141393
728.135	0.0139649
728.213	0.0138771
728.291	0.0138858
728.369	0.0139745
728.447	0.0138650
728.525	0.0138178
728.603	0.0137395
728.682	0.0137255
728.760	0.0136282
728.838	0.0137080
728.916	0.0135445
728.994	0.0135279
729.072	0.0135772
729.150	0.0132783
729.228	0.0130493
729.307	0.0134120
729.385	0.0131387
729.463	0.0131125
729.541	0.0131348
729.619	0.0130024
729.697	0.0128963
729.775	0.0130286
729.853	0.0130840
729.932	0.0130104
730.010	0.0129973
730.088	0.0131569
730.166	0.0131831
730.244	0.0132938
730.322	0.0133704
730.400	0.0133553
730.478	0.0134761
730.557	0.0135125
730.635	0.0136574
730.713	0.0138945
730.791	0.0138284
730.869	0.0140187
730.947	0.0142106
731.025	0.0141721
731.103	0.0143713
731.182	0.0144074
731.260	0.0145160
731.338	0.0145142
731.416	0.0143742
731.494	0.0145405
731.572	0.0146807
731.650	0.0145921
731.728	0.0145499
731.807	0.0147786
731.885	0.0147477
731.963	0.0147161
732.041	0.0147701
732.119	0.0148001
732.197	0.0148943
732.275	0.0149118
732.353	0.0149546
732.432	0.0148227
732.510	0.0147988
732.588	0.0148698
732.666	0.0147677
732.744	0.0147775
732.822	0.0148200
732.900	0.0148528
732.978	0.0147478
733.057	0.0147042
733.135	0.0146954
733.213	0.0145613
733.291	0.0144258
733.369	0.0144940
733.447	0.0143776
733.525	0.0144880
733.603	0.0142782
733.682	0.0141796
733.760	0.0142655
733.838	0.0142094
733.916	0.0141048
733.994	0.0139512
734.072	0.0140403
734.150	0.0139775
734.228	0.0138713
734.307	0.0137238
734.385	0.0136417
734.463	0.0135567
734.541	0.0135836
734.619	0.0134475
734.697	0.0134102
734.775	0.0132605
734.853	0.0133096
734.932	0.0132151
735.010	0.0132404
735.088	0.0133350
735.166	0.0135182
735.244	0.0134615
735.322	0.0134780
735.400	0.0135587
735.478	0.0136105
735.557	0.0136584
735.635	0.0137057
735.713	0.0136894
