05/14/2022	19:32:45	Ver.	4.1	UNKNOWN
Optical Delay	650.009681	Delta X		0.078125	Sweeps	1	Scan Rate	0/0
Coordinates	Axis 1	NaN	Axis 2	NaN	Axis 3	NaN	Axis 4	NaN	Axis 5	NaN	Axis 6	0.000000
TX Power	0.000000	RX Power	0.000000

650.010	0.0141457
650.088	0.0141103
650.166	0.0141263
650.244	0.0139738
650.322	0.0140945
650.400	0.0140967
650.478	0.0141171
650.557	0.0141131
650.635	0.0141124
650.713	0.0140867
650.791	0.0141329
650.869	0.0141488
650.947	0.0140134
651.025	0.0140313
651.103	0.0140974
651.182	0.0139765
651.260	0.0140725
651.338	0.0141435
651.416	0.0140201
651.494	0.0139703
651.572	0.0140064
651.650	0.0140302
651.728	0.0139829
651.807	0.0140182
651.885	0.0138718
651.963	0.0140472
652.041	0.0140746
652.119	0.0139208
652.197	0.0138965
652.275	0.0138368
652.353	0.0138377
652.432	0.0139265
652.510	0.0140205
652.588	0.0139382
652.666	0.0139052
652.744	0.0139277
652.822	0.0138624
652.900	0.0138591
652.978	0.0138371
653.057	0.0139006
653.135	0.0139236
653.213	0.0138151
653.291	0.0138179
653.369	0.0139540
653.447	0.0137971
653.525	0.0138605
653.603	0.0140562
653.682	0.0139133
653.760	0.0139314
653.838	0.0138857
653.916	0.0139531
653.994	0.0139487
654.072	0.0139594
654.150	0.0138496
654.228	0.0140122
654.307	0.0140361
654.385	0.0139398
654.463	0.0138910
654.541	0.0139429
654.619	0.0139880
654.697	0.0138747
654.775	0.0140005
654.853	0.0139586
654.932	0.0139809
655.010	0.0140074
655.088	0.0141195
655.166	0.0140613
655.244	0.0140770
655.322	0.0139187
655.400	0.0139464
655.478	0.0140703
655.557	0.0140360
655.635	0.0142974
655.713	0.0140590
655.791	0.0139787
655.869	0.0140220
655.947	0.0141465
656.025	0.0141273
656.103	0.0141927
656.182	0.0140879
656.260	0.0140849
656.338	0.0141743
656.416	0.0142676
656.494	0.0140831
656.572	0.0141111
656.650	0.0140424
656.728	0.0142047
656.807	0.0139827
656.885	0.0140410
656.963	0.0139853
657.041	0.0141332
657.119	0.0141218
657.197	0.0140450
657.275	0.0139821
657.353	0.0139165
657.432	0.0140514
657.510	0.0140515
657.588	0.0140815
657.666	0.0139938
657.744	0.0140115
657.822	0.0140839
657.900	0.0141219
657.978	0.0140186
658.057	0.0140729
658.135	0.0140942
658.213	0.0142560
658.291	0.0141264
658.369	0.0141176
658.447	0.0142063
658.525	0.0141952
658.603	0.0140187
658.682	0.0141756
658.760	0.0142551
658.838	0.0142371
658.916	0.0144193
658.994	0.0142791
659.072	0.0142675
659.150	0.0143475
659.228	0.0142673
659.307	0.0142839
659.385	0.0142728
659.463	0.0141407
659.541	0.0142799
659.619	0.0141871
659.697	0.0142722
659.775	0.0141984
659.853	0.0142228
659.932	0.0142963
660.010	0.0143176
660.088	0.0144059
660.166	0.0142099
660.244	0.0144005
660.322	0.0144683
660.400	0.0142364
660.478	0.0141808
660.557	0.0143086
660.635	0.0142814
660.713	0.0143391
660.791	0.0144056
660.869	0.0141896
660.947	0.0143417
661.025	0.0142992
661.103	0.0142197
661.182	0.0141238
661.260	0.0142826
661.338	0.0143510
661.416	0.0142188
661.494	0.0143662
661.572	0.0142122
661.650	0.0141388
661.728	0.0141566
661.807	0.0144008
661.885	0.0142394
661.963	0.0141872
662.041	0.0143613
662.119	0.0141534
662.197	0.0141785
662.275	0.0142045
662.353	0.0141913
662.432	0.0142049
662.510	0.0140452
662.588	0.0140091
662.666	0.0141898
662.744	0.0142972
662.822	0.0142112
662.900	0.0142063
662.978	0.0142608
663.057	0.0142538
663.135	0.0144373
663.213	0.0144945
663.291	0.0146304
663.369	0.0147814
663.447	0.0147080
663.525	0.0147410
663.603	0.0149528
663.682	0.0148289
663.760	0.0148988
663.838	0.0148792
663.916	0.0148953
663.994	0.0147192
664.072	0.0147171
664.150	0.0145607
664.228	0.0145830
664.307	0.0143575
664.385	0.0142966
664.463	0.0140427
664.541	0.0137984
664.619	0.0136221
664.697	0.0136302
664.775	0.0134984
664.853	0.0133875
664.932	0.0132140
665.010	0.0132092
665.088	0.0131551
665.166	0.0129057
665.244	0.0129681
665.322	0.0130940
665.400	0.0130604
665.478	0.0131631
665.557	0.0133634
665.635	0.0133672
665.713	0.0137220
665.791	0.0138544
665.869	0.0142663
665.947	0.0144669
666.025	0.0148324
666.103	0.0149533
666.182	0.0153883
666.260	0.0154983
666.338	0.0157032
666.416	0.0159005
666.494	0.0160956
666.572	0.0162974
666.650	0.0162180
666.728	0.0162311
666.807	0.0162035
666.885	0.0163454
666.963	0.0160745
667.041	0.0157779
667.119	0.0156046
667.197	0.0151844
667.275	0.0149456
667.353	0.0144774
667.432	0.0139902
667.510	0.0136813
667.588	0.0132702
667.666	0.0128236
667.744	0.0124887
667.822	0.0122829
667.900	0.0119747
667.978	0.0117706
668.057	0.0116512
668.135	0.0115486
668.213	0.0113469
668.291	0.0113941
668.369	0.0114971
668.447	0.0116939
668.525	0.0116686
668.603	0.0120996
668.682	0.0123830
668.760	0.0127569
668.838	0.0130405
668.916	0.0135879
668.994	0.0140312
669.072	0.0144852
669.150	0.0149796
669.228	0.0155415
669.307	0.0160870
669.385	0.0165456
669.463	0.0170132
669.541	0.0172640
669.619	0.0175936
669.697	0.0178790
669.775	0.0181232
669.853	0.0180377
669.932	0.0179644
670.010	0.0178725
670.088	0.0177348
670.166	0.0174313
670.244	0.0168518
670.322	0.0164249
670.400	0.0158476
670.478	0.0152037
670.557	0.0145373
670.635	0.0140168
670.713	0.0134283
670.791	0.0128594
670.869	0.0122631
670.947	0.0116588
671.025	0.0113106
671.103	0.0107876
671.182	0.0105475
671.260	0.0102075
671.338	0.0101936
671.416	0.0100854
671.494	0.0100273
671.572	0.0102103
671.650	0.0104523
671.728	0.0108784
671.807	0.0111501
671.885	0.0115772
671.963	0.0121308
672.041	0.0126633
672.119	0.0132027
672.197	0.0137834
672.275	0.0143089
672.353	0.0147821
672.432	0.0153404
672.510	0.0158249
672.588	0.0161359
672.666	0.0164632
672.744	0.0168810
672.822	0.0171063
672.900	0.0171204
672.978	0.0171309
673.057	0.0172427
673.135	0.0169352
673.213	0.0169814
673.291	0.0167101
673.369	0.0165456
673.447	0.0162405
673.525	0.0158981
673.603	0.0156623
673.682	0.0153480
673.760	0.0148855
673.838	0.0146168
673.916	0.0141270
673.994	0.0136465
674.072	0.0134125
674.150	0.0133524
674.228	0.0128870
674.307	0.0126711
674.385	0.0124892
674.463	0.0123716
674.541	0.0122031
674.619	0.0122269
674.697	0.0123249
674.775	0.0122472
674.853	0.0123682
674.932	0.0124289
675.010	0.0126400
675.088	0.0126711
675.166	0.0127973
675.244	0.0127950
675.322	0.0129373
675.400	0.0129317
675.478	0.0129948
675.557	0.0131422
675.635	0.0131796
675.713	0.0130008
675.791	0.0130138
675.869	0.0130429
675.947	0.0130696
676.025	0.0131313
676.103	0.0129167
676.182	0.0130277
676.260	0.0129908
676.338	0.0130459
676.416	0.0129970
676.494	0.0130192
676.572	0.0130932
676.650	0.0132054
676.728	0.0134052
676.807	0.0134983
676.885	0.0134944
676.963	0.0136407
677.041	0.0137619
677.119	0.0139870
677.197	0.0141982
677.275	0.0146744
677.353	0.0147257
677.432	0.0148864
677.510	0.0152863
677.588	0.0156012
677.666	0.0157907
677.744	0.0159466
677.822	0.0162570
677.900	0.0165323
677.978	0.0166489
678.057	0.0165913
678.135	0.0167210
678.213	0.0166985
678.291	0.0166525
678.369	0.0164984
678.447	0.0162720
678.525	0.0161292
678.603	0.0160123
678.682	0.0156866
678.760	0.0153244
678.838	0.0149128
678.916	0.0143725
678.994	0.0139082
679.072	0.0134641
679.150	0.0132126
679.228	0.0126882
679.307	0.0122585
679.385	0.0118052
679.463	0.0115563
679.541	0.0113084
679.619	0.0111688
679.697	0.0110959
679.775	0.0108893
679.853	0.0110206
679.932	0.0110456
680.010	0.0111988
680.088	0.0114775
680.166	0.0117532
680.244	0.0121459
680.322	0.0124586
680.400	0.0129400
680.478	0.0133175
680.557	0.0138355
680.635	0.0143387
680.713	0.0149490
680.791	0.0153770
680.869	0.0158035
680.947	0.0163061
681.025	0.0166965
681.103	0.0171246
681.182	0.0173229
681.260	0.0175142
681.338	0.0176691
681.416	0.0177052
681.494	0.0176148
681.572	0.0177020
681.650	0.0174492
681.728	0.0171848
681.807	0.0169856
681.885	0.0166899
681.963	0.0160002
682.041	0.0155228
682.119	0.0151123
682.197	0.0146381
682.275	0.0140815
682.353	0.0134304
682.432	0.0130272
682.510	0.0125574
682.588	0.0122063
682.666	0.0121400
682.744	0.0118188
682.822	0.0117682
682.900	0.0116902
682.978	0.0115912
683.057	0.0117713
683.135	0.0121786
683.213	0.0123091
683.291	0.0123795
683.369	0.0127847
683.447	0.0130482
683.525	0.0133872
683.603	0.0136884
683.682	0.0140247
683.760	0.0143465
683.838	0.0144273
683.916	0.0147742
683.994	0.0149636
684.072	0.0152042
684.150	0.0152216
684.228	0.0154149
684.307	0.0156639
684.385	0.0156585
684.463	0.0156335
684.541	0.0156744
684.619	0.0156020
684.697	0.0155248
684.775	0.0154381
684.853	0.0152267
684.932	0.0153258
685.010	0.0150228
685.088	0.0149506
685.166	0.0148947
685.244	0.0146127
685.322	0.0145487
685.400	0.0144887
685.478	0.0145019
685.557	0.0143607
685.635	0.0143125
685.713	0.0142776
685.791	0.0142267
685.869	0.0140495
685.947	0.0140681
686.025	0.0137690
686.103	0.0138556
686.182	0.0137135
686.260	0.0134846
686.338	0.0135350
686.416	0.0134813
686.494	0.0132773
686.572	0.0132429
686.650	0.0131316
686.728	0.0130468
686.807	0.0128196
686.885	0.0129122
686.963	0.0126345
687.041	0.0125591
687.119	0.0125772
687.197	0.0125547
687.275	0.0125849
687.353	0.0125735
687.432	0.0125408
687.510	0.0127331
687.588	0.0126282
687.666	0.0127477
687.744	0.0128651
687.822	0.0129992
687.900	0.0130686
687.978	0.0132334
688.057	0.0132755
688.135	0.0136192
688.213	0.0136203
688.291	0.0140005
688.369	0.0143180
688.447	0.0144896
688.525	0.0147959
688.603	0.0149807
688.682	0.0154039
688.760	0.0155343
688.838	0.0158031
688.916	0.0161328
688.994	0.0163625
689.072	0.0166290
689.150	0.0167212
689.228	0.0167638
689.307	0.0167732
689.385	0.0166584
689.463	0.0167401
689.541	0.0167823
689.619	0.0166605
689.697	0.0164805
689.775	0.0162836
689.853	0.0160543
689.932	0.0158814
690.010	0.0157920
690.088	0.0155173
690.166	0.0151120
690.244	0.0148024
690.322	0.0145195
690.400	0.0144086
690.478	0.0140327
690.557	0.0139885
690.635	0.0135889
690.713	0.0133845
690.791	0.0132826
690.869	0.0130590
690.947	0.0129994
691.025	0.0129168
691.103	0.0128598
691.182	0.0124892
691.260	0.0125154
691.338	0.0123552
691.416	0.0122255
691.494	0.0121197
691.572	0.0122069
691.650	0.0121523
691.728	0.0122132
691.807	0.0122419
691.885	0.0123203
691.963	0.0123757
692.041	0.0122708
692.119	0.0123295
692.197	0.0123801
692.275	0.0125150
692.353	0.0124105
692.432	0.0124886
692.510	0.0124810
692.588	0.0124956
692.666	0.0126260
692.744	0.0126708
692.822	0.0127770
692.900	0.0131049
692.978	0.0132687
693.057	0.0133153
693.135	0.0136760
693.213	0.0140453
693.291	0.0142416
693.369	0.0145783
693.447	0.0148780
693.525	0.0151588
693.603	0.0156772
693.682	0.0160098
693.760	0.0163918
693.838	0.0167963
693.916	0.0171393
693.994	0.0174842
694.072	0.0178585
694.150	0.0180289
694.228	0.0182599
694.307	0.0184044
694.385	0.0185968
694.463	0.0185574
694.541	0.0185594
694.619	0.0184988
694.697	0.0182437
694.775	0.0180983
694.853	0.0178805
694.932	0.0176778
695.010	0.0171577
695.088	0.0168581
695.166	0.0162945
695.244	0.0159306
695.322	0.0154189
695.400	0.0149287
695.478	0.0143355
695.557	0.0139327
695.635	0.0131491
695.713	0.0125941
695.791	0.0119348
695.869	0.0115489
695.947	0.0109449
696.025	0.0104808
696.103	0.0102105
696.182	0.00980728
696.260	0.00968086
696.338	0.00952431
696.416	0.00961731
696.494	0.00950134
696.572	0.00972336
696.650	0.00994873
696.728	0.0103478
696.807	0.0108614
696.885	0.0113536
696.963	0.0117636
697.041	0.0122136
697.119	0.0126807
697.197	0.0133089
697.275	0.0138389
697.353	0.0141000
697.432	0.0145511
697.510	0.0150124
697.588	0.0153079
697.666	0.0155110
697.744	0.0157000
697.822	0.0157754
697.900	0.0158164
697.978	0.0156429
698.057	0.0156866
698.135	0.0157021
698.213	0.0153197
698.291	0.0152551
698.369	0.0151954
698.447	0.0148643
698.525	0.0149672
698.603	0.0146996
698.682	0.0146481
698.760	0.0147313
698.838	0.0145824
698.916	0.0145454
698.994	0.0148031
699.072	0.0147457
699.150	0.0148721
699.228	0.0148750
699.307	0.0151368
699.385	0.0152168
699.463	0.0154401
699.541	0.0156162
699.619	0.0156989
699.697	0.0158967
699.775	0.0159203
699.853	0.0159393
699.932	0.0162191
700.010	0.0162358
700.088	0.0164175
700.166	0.0164558
700.244	0.0163319
700.322	0.0161985
700.400	0.0162898
700.478	0.0161898
700.557	0.0159441
700.635	0.0158863
700.713	0.0158446
700.791	0.0156225
700.869	0.0153846
700.947	0.0151275
701.025	0.0149132
701.103	0.0147082
701.182	0.0144263
701.260	0.0142852
701.338	0.0139451
701.416	0.0138326
701.494	0.0134289
701.572	0.0131974
701.650	0.0129319
701.728	0.0125247
701.807	0.0122099
701.885	0.0118766
701.963	0.0116611
702.041	0.0116490
702.119	0.0113638
702.197	0.0112688
702.275	0.0112374
702.353	0.0110685
702.432	0.0111051
702.510	0.0110941
702.588	0.0113776
702.666	0.0114996
702.744	0.0117234
702.822	0.0119209
702.900	0.0121962
702.978	0.0124756
703.057	0.0126497
703.135	0.0130182
703.213	0.0131809
703.291	0.0135260
703.369	0.0137088
703.447	0.0139452
703.525	0.0142853
703.603	0.0144374
703.682	0.0145878
703.760	0.0148421
703.838	0.0150705
703.916	0.0151664
703.994	0.0152895
704.072	0.0155012
704.150	0.0156824
704.228	0.0157009
704.307	0.0158591
704.385	0.0159558
704.463	0.0159563
704.541	0.0161223
704.619	0.0163322
704.697	0.0163477
704.775	0.0165031
704.853	0.0167284
704.932	0.0167271
705.010	0.0168373
705.088	0.0168395
705.166	0.0168316
705.244	0.0168410
705.322	0.0167635
705.400	0.0165435
705.478	0.0164182
705.557	0.0161989
705.635	0.0158759
705.713	0.0155456
705.791	0.0152259
705.869	0.0148117
705.947	0.0144759
706.025	0.0141997
706.103	0.0138336
706.182	0.0137402
706.260	0.0132896
706.338	0.0131319
706.416	0.0129549
706.494	0.0128983
706.572	0.0126667
706.650	0.0126412
706.728	0.0125610
706.807	0.0126274
706.885	0.0126169
706.963	0.0126774
707.041	0.0128971
707.119	0.0128575
707.197	0.0130212
707.275	0.0131112
707.353	0.0132008
707.432	0.0133451
707.510	0.0133569
707.588	0.0133408
707.666	0.0135618
707.744	0.0134245
707.822	0.0134834
707.900	0.0133603
707.978	0.0131920
708.057	0.0130289
708.135	0.0129715
708.213	0.0128584
708.291	0.0128072
708.369	0.0126359
708.447	0.0125218
708.525	0.0126633
708.603	0.0125529
708.682	0.0126083
708.760	0.0128002
708.838	0.0127809
708.916	0.0129236
708.994	0.0132268
709.072	0.0133614
709.150	0.0135933
709.228	0.0138574
709.307	0.0138736
709.385	0.0141711
709.463	0.0145355
709.541	0.0146382
709.619	0.0146759
709.697	0.0147493
709.775	0.0150689
709.853	0.0153751
709.932	0.0151945
710.010	0.0154184
710.088	0.0156208
710.166	0.0154504
710.244	0.0157131
710.322	0.0158329
710.400	0.0158723
710.478	0.0157182
710.557	0.0160425
710.635	0.0159826
710.713	0.0160471
710.791	0.0161784
710.869	0.0160115
710.947	0.0161848
711.025	0.0161279
711.103	0.0160055
711.182	0.0160175
711.260	0.0159675
711.338	0.0157787
711.416	0.0155952
711.494	0.0153313
711.572	0.0153702
711.650	0.0150681
711.728	0.0148717
711.807	0.0144821
711.885	0.0141853
711.963	0.0139674
712.041	0.0137850
712.119	0.0135093
712.197	0.0134338
712.275	0.0132847
712.353	0.0131538
712.432	0.0130646
712.510	0.0130799
712.588	0.0131609
712.666	0.0132620
712.744	0.0135472
712.822	0.0135590
712.900	0.0137855
712.978	0.0138692
713.057	0.0139606
713.135	0.0141261
713.213	0.0142580
713.291	0.0143672
713.369	0.0143523
713.447	0.0143507
713.525	0.0147031
713.603	0.0145267
713.682	0.0144681
713.760	0.0143349
713.838	0.0143414
713.916	0.0142584
713.994	0.0140335
714.072	0.0142194
714.150	0.0140308
714.228	0.0139213
714.307	0.0140781
714.385	0.0139564
714.463	0.0136993
714.541	0.0137994
714.619	0.0136536
714.697	0.0137453
714.775	0.0136641
714.853	0.0133620
714.932	0.0135509
715.010	0.0134784
715.088	0.0135062
715.166	0.0135584
715.244	0.0134567
715.322	0.0135677
715.400	0.0136704
715.478	0.0136556
715.557	0.0135942
715.635	0.0137127
715.713	0.0137633
715.791	0.0137068
715.869	0.0140411
715.947	0.0140394
716.025	0.0141597
716.103	0.0142302
716.182	0.0143785
716.260	0.0144262
716.338	0.0146528
716.416	0.0147292
716.494	0.0149054
716.572	0.0148914
716.650	0.0148734
716.728	0.0151560
716.807	0.0153910
716.885	0.0150900
716.963	0.0152779
717.041	0.0151731
717.119	0.0153922
717.197	0.0152985
717.275	0.0153819
717.353	0.0152867
717.432	0.0154187
717.510	0.0154012
717.588	0.0154456
717.666	0.0153985
717.744	0.0154089
717.822	0.0153535
717.900	0.0153568
717.978	0.0152194
718.057	0.0153025
718.135	0.0151246
718.213	0.0149165
718.291	0.0147898
718.369	0.0147231
718.447	0.0145302
718.525	0.0143983
718.603	0.0142373
718.682	0.0141565
718.760	0.0140810
718.838	0.0138463
718.916	0.0135051
718.994	0.0135605
719.072	0.0133479
719.150	0.0131448
719.228	0.0129765
719.307	0.0129838
719.385	0.0127715
719.463	0.0127264
719.541	0.0127947
719.619	0.0124935
719.697	0.0125497
719.775	0.0123991
719.853	0.0125958
719.932	0.0125999
720.010	0.0127269
720.088	0.0127841
720.166	0.0127746
720.244	0.0128769
720.322	0.0130103
720.400	0.0130538
720.478	0.0132477
720.557	0.0133083
720.635	0.0132239
720.713	0.0136124
720.791	0.0137512
720.869	0.0138223
720.947	0.0139185
721.025	0.0139544
721.103	0.0142091
721.182	0.0142867
721.260	0.0145487
721.338	0.0145943
721.416	0.0148078
721.494	0.0148630
721.572	0.0148634
721.650	0.0151417
721.728	0.0152146
721.807	0.0152087
721.885	0.0153156
721.963	0.0150804
722.041	0.0153675
722.119	0.0154175
722.197	0.0153417
722.275	0.0153014
722.353	0.0154520
722.432	0.0151776
722.510	0.0152085
722.588	0.0151392
722.666	0.0150563
722.744	0.0150490
722.822	0.0150700
722.900	0.0149742
722.978	0.0149365
723.057	0.0148222
723.135	0.0148355
723.213	0.0147499
723.291	0.0146798
723.369	0.0145142
723.447	0.0146168
723.525	0.0144415
723.603	0.0145260
723.682	0.0144446
723.760	0.0144962
723.838	0.0143529
723.916	0.0142738
723.994	0.0142982
724.072	0.0142628
724.150	0.0143545
724.228	0.0142575
724.307	0.0142322
724.385	0.0140278
724.463	0.0140687
724.541	0.0139955
724.619	0.0140318
724.697	0.0138369
724.775	0.0136974
724.853	0.0136912
724.932	0.0135825
725.010	0.0133995
725.088	0.0133325
725.166	0.0133356
725.244	0.0132780
725.322	0.0133748
725.400	0.0134286
725.478	0.0134220
725.557	0.0136122
725.635	0.0137830
725.713	0.0139017
725.791	0.0140334
725.869	0.0140260
725.947	0.0141140
726.025	0.0142553
726.103	0.0143352
726.182	0.0145129
726.260	0.0146021
726.338	0.0146410
726.416	0.0147917
726.494	0.0147392
726.572	0.0147054
726.650	0.0147349
726.728	0.0147439
726.807	0.0147336
726.885	0.0145963
726.963	0.0144505
727.041	0.0144944
727.119	0.0143015
727.197	0.0142180
727.275	0.0141606
727.353	0.0138908
727.432	0.0139306
727.510	0.0138706
727.588	0.0137691
727.666	0.0136722
727.744	0.0136525
727.822	0.0137848
727.900	0.0137059
727.978	0.0136546
728.057	0.0137849
728.135	0.0137028
728.213	0.0137680
728.291	0.0138164
728.369	0.0138047
728.447	0.0139475
728.525	0.0139436
728.603	0.0140451
728.682	0.0141542
728.760	0.0142102
728.838	0.0142041
728.916	0.0142104
728.994	0.0141946
729.072	0.0142719
729.150	0.0143289
729.228	0.0143270
729.307	0.0143867
729.385	0.0143813
729.463	0.0144502
729.541	0.0145424
729.619	0.0145640
729.697	0.0145301
729.775	0.0146529
729.853	0.0147072
729.932	0.0147554
730.010	0.0149370
730.088	0.0148747
730.166	0.0147988
730.244	0.0147722
730.322	0.0149030
730.400	0.0147281
730.478	0.0145285
730.557	0.0145367
730.635	0.0143961
730.713	0.0142827
730.791	0.0143356
730.869	0.0141010
730.947	0.0138520
731.025	0.0136720
731.103	0.0137171
731.182	0.0135108
731.260	0.0133810
731.338	0.0132882
731.416	0.0132424
731.494	0.0132753
731.572	0.0132172
731.650	0.0132162
731.728	0.0131271
731.807	0.0133161
731.885	0.0133707
731.963	0.0135871
732.041	0.0136913
732.119	0.0138034
732.197	0.0139118
732.275	0.0141022
732.353	0.0140853
732.432	0.0143121
732.510	0.0146040
732.588	0.0144814
732.666	0.0146783
732.744	0.0147160
732.822	0.0146596
732.900	0.0149212
732.978	0.0148853
733.057	0.0148934
733.135	0.0148501
733.213	0.0147182
733.291	0.0147702
733.369	0.0147552
733.447	0.0146374
733.525	0.0146178
733.603	0.0147670
733.682	0.0145950
733.760	0.0144377
733.838	0.0144544
733.916	0.0143156
733.994	0.0142780
734.072	0.0142404
734.150	0.0141176
734.228	0.0140500
734.307	0.0139628
734.385	0.0139367
734.463	0.0139493
734.541	0.0138321
734.619	0.0137302
734.697	0.0136908
734.775	0.0136657
734.853	0.0136654
734.932	0.0136293
735.010	0.0136143
735.088	0.0136241
735.166	0.0136563
735.244	0.0137678
735.322	0.0136472
735.400	0.0136256
735.478	0.0136098
735.557	0.0137247
735.635	0.0137213
735.713	0.0137877
