05/14/2022	19:34:30	Ver.	4.1	UNKNOWN
Optical Delay	650.009681	Delta X		0.078125	Sweeps	1	Scan Rate	0/0
Coordinates	Axis 1	NaN	Axis 2	NaN	Axis 3	NaN	Axis 4	NaN	Axis 5	NaN	Axis 6	0.000000
TX Power	0.000000	RX Power	0.000000

650.010	0.0140260
650.088	0.0139185
650.166	0.0138843
650.244	0.0138306
650.322	0.0139909
650.400	0.0140092
650.478	0.0139478
650.557	0.0139679
650.635	0.0138964
650.713	0.0140466
650.791	0.0140490
650.869	0.0139502
650.947	0.0139320
651.025	0.0138709
651.103	0.0139570
651.182	0.0140240
651.260	0.0138335
651.338	0.0138395
651.416	0.0139565
651.494	0.0138502
651.572	0.0139662
651.650	0.0139417
651.728	0.0139034
651.807	0.0139139
651.885	0.0138279
651.963	0.0140223
652.041	0.0138644
652.119	0.0137929
652.197	0.0139580
652.275	0.0138982
652.353	0.0138815
652.432	0.0139668
652.510	0.0137975
652.588	0.0139008
652.666	0.0139902
652.744	0.0140076
652.822	0.0139329
652.900	0.0139702
652.978	0.0139301
653.057	0.0139596
653.135	0.0140992
653.213	0.0141721
653.291	0.0141020
653.369	0.0140440
653.447	0.0140968
653.525	0.0139829
653.603	0.0140579
653.682	0.0139076
653.760	0.0140700
653.838	0.0139715
653.916	0.0139981
653.994	0.0140263
654.072	0.0138724
654.150	0.0138781
654.228	0.0138636
654.307	0.0138469
654.385	0.0138935
654.463	0.0137666
654.541	0.0138331
654.619	0.0138140
654.697	0.0137232
654.775	0.0138013
654.853	0.0138735
654.932	0.0138347
655.010	0.0137874
655.088	0.0138679
655.166	0.0138829
655.244	0.0139864
655.322	0.0140040
655.400	0.0138753
655.478	0.0139162
655.557	0.0138350
655.635	0.0138942
655.713	0.0138956
655.791	0.0139786
655.869	0.0140553
655.947	0.0140298
656.025	0.0141155
656.103	0.0140099
656.182	0.0139330
656.260	0.0141313
656.338	0.0139949
656.416	0.0141167
656.494	0.0139867
656.572	0.0140688
656.650	0.0138844
656.728	0.0139145
656.807	0.0138788
656.885	0.0140122
656.963	0.0137601
657.041	0.0139437
657.119	0.0138930
657.197	0.0138843
657.275	0.0138745
657.353	0.0139738
657.432	0.0140039
657.510	0.0140332
657.588	0.0140827
657.666	0.0140982
657.744	0.0141292
657.822	0.0141872
657.900	0.0142958
657.978	0.0142260
658.057	0.0141488
658.135	0.0141811
658.213	0.0141299
658.291	0.0141949
658.369	0.0141723
658.447	0.0140532
658.525	0.0140560
658.603	0.0140405
658.682	0.0141612
658.760	0.0141363
658.838	0.0141826
658.916	0.0142039
658.994	0.0143591
659.072	0.0143040
659.150	0.0141932
659.228	0.0142278
659.307	0.0142718
659.385	0.0143322
659.463	0.0144318
659.541	0.0144576
659.619	0.0143002
659.697	0.0143156
659.775	0.0143772
659.853	0.0142656
659.932	0.0141327
660.010	0.0142955
660.088	0.0142915
660.166	0.0142952
660.244	0.0141721
660.322	0.0140900
660.400	0.0142189
660.478	0.0141467
660.557	0.0140526
660.635	0.0142306
660.713	0.0142307
660.791	0.0140825
660.869	0.0144164
660.947	0.0144028
661.025	0.0141768
661.103	0.0145335
661.182	0.0145222
661.260	0.0144937
661.338	0.0143757
661.416	0.0145621
661.494	0.0144525
661.572	0.0144218
661.650	0.0143262
661.728	0.0142338
661.807	0.0142316
661.885	0.0141495
661.963	0.0141073
662.041	0.0138704
662.119	0.0137256
662.197	0.0135841
662.275	0.0135725
662.353	0.0134769
662.432	0.0133221
662.510	0.0134532
662.588	0.0132980
662.666	0.0131197
662.744	0.0132501
662.822	0.0132727
662.900	0.0131549
662.978	0.0131988
663.057	0.0133205
663.135	0.0133323
663.213	0.0134205
663.291	0.0134492
663.369	0.0137526
663.447	0.0137768
663.525	0.0139265
663.603	0.0141081
663.682	0.0142847
663.760	0.0144851
663.838	0.0146813
663.916	0.0150021
663.994	0.0150365
664.072	0.0152786
664.150	0.0152450
664.228	0.0153626
664.307	0.0154969
664.385	0.0154376
664.463	0.0152971
664.541	0.0154571
664.619	0.0153640
664.697	0.0151591
664.775	0.0150813
664.853	0.0148936
664.932	0.0145135
665.010	0.0142997
665.088	0.0139733
665.166	0.0138934
665.244	0.0134032
665.322	0.0131840
665.400	0.0129295
665.478	0.0127496
665.557	0.0124266
665.635	0.0122254
665.713	0.0120258
665.791	0.0119266
665.869	0.0118526
665.947	0.0117310
666.025	0.0115694
666.103	0.0117733
666.182	0.0117503
666.260	0.0118236
666.338	0.0119646
666.416	0.0122553
666.494	0.0123795
666.572	0.0126601
666.650	0.0131636
666.728	0.0134362
666.807	0.0137494
666.885	0.0143399
666.963	0.0146599
667.041	0.0151342
667.119	0.0156427
667.197	0.0159949
667.275	0.0164746
667.353	0.0167388
667.432	0.0170940
667.510	0.0172790
667.588	0.0174030
667.666	0.0175359
667.744	0.0173690
667.822	0.0173182
667.900	0.0172078
667.978	0.0169110
668.057	0.0166833
668.135	0.0162802
668.213	0.0158132
668.291	0.0153018
668.369	0.0149702
668.447	0.0144101
668.525	0.0139806
668.603	0.0133057
668.682	0.0126289
668.760	0.0120946
668.838	0.0115151
668.916	0.0110965
668.994	0.0107150
669.072	0.0104134
669.150	0.0100610
669.228	0.00985176
669.307	0.00984879
669.385	0.00995628
669.463	0.0101067
669.541	0.0103226
669.619	0.0106117
669.697	0.0110990
669.775	0.0114693
669.853	0.0119692
669.932	0.0123560
670.010	0.0129870
670.088	0.0136711
670.166	0.0142104
670.244	0.0147484
670.322	0.0154334
670.400	0.0160950
670.478	0.0165626
670.557	0.0171655
670.635	0.0174671
670.713	0.0178170
670.791	0.0182349
670.869	0.0184611
670.947	0.0185787
671.025	0.0186263
671.103	0.0186195
671.182	0.0185776
671.260	0.0182809
671.338	0.0181926
671.416	0.0178014
671.494	0.0173643
671.572	0.0167729
671.650	0.0165090
671.728	0.0158698
671.807	0.0151925
671.885	0.0146189
671.963	0.0141808
672.041	0.0135549
672.119	0.0127092
672.197	0.0123670
672.275	0.0120581
672.353	0.0117458
672.432	0.0114143
672.510	0.0111076
672.588	0.0110544
672.666	0.0107813
672.744	0.0108458
672.822	0.0109174
672.900	0.0110651
672.978	0.0110341
673.057	0.0111390
673.135	0.0114366
673.213	0.0116230
673.291	0.0120161
673.369	0.0121622
673.447	0.0125183
673.525	0.0128979
673.603	0.0131261
673.682	0.0136355
673.760	0.0138952
673.838	0.0141802
673.916	0.0145476
673.994	0.0147781
674.072	0.0149293
674.150	0.0151947
674.228	0.0154062
674.307	0.0153735
674.385	0.0154046
674.463	0.0155291
674.541	0.0155023
674.619	0.0153954
674.697	0.0153084
674.775	0.0153405
674.853	0.0151432
674.932	0.0151302
675.010	0.0149100
675.088	0.0148401
675.166	0.0146983
675.244	0.0146783
675.322	0.0145115
675.400	0.0146027
675.478	0.0146705
675.557	0.0146941
675.635	0.0147517
675.713	0.0149291
675.791	0.0150612
675.869	0.0152547
675.947	0.0153552
676.025	0.0154982
676.103	0.0154902
676.182	0.0156302
676.260	0.0155702
676.338	0.0156408
676.416	0.0153823
676.494	0.0153410
676.572	0.0152460
676.650	0.0150290
676.728	0.0147867
676.807	0.0146698
676.885	0.0143844
676.963	0.0140308
677.041	0.0138737
677.119	0.0133844
677.197	0.0129549
677.275	0.0127336
677.353	0.0124292
677.432	0.0120315
677.510	0.0117059
677.588	0.0112817
677.666	0.0110861
677.744	0.0109015
677.822	0.0107024
677.900	0.0105157
677.978	0.0103992
678.057	0.0105035
678.135	0.0106302
678.213	0.0107371
678.291	0.0111179
678.369	0.0112506
678.447	0.0115916
678.525	0.0121336
678.603	0.0123613
678.682	0.0128976
678.760	0.0135362
678.838	0.0140726
678.916	0.0144961
678.994	0.0150502
679.072	0.0157479
679.150	0.0163924
679.228	0.0168512
679.307	0.0172520
679.385	0.0177699
679.463	0.0179815
679.541	0.0182282
679.619	0.0185253
679.697	0.0185175
679.775	0.0185138
679.853	0.0183905
679.932	0.0183363
680.010	0.0181849
680.088	0.0178300
680.166	0.0174078
680.244	0.0170804
680.322	0.0166124
680.400	0.0162574
680.478	0.0159362
680.557	0.0153269
680.635	0.0149029
680.713	0.0145666
680.791	0.0142521
680.869	0.0136029
680.947	0.0131133
681.025	0.0128256
681.103	0.0123682
681.182	0.0118031
681.260	0.0114870
681.338	0.0110752
681.416	0.0108060
681.494	0.0105315
681.572	0.0102491
681.650	0.0101587
681.728	0.0101365
681.807	0.00999435
681.885	0.0102976
681.963	0.0105850
682.041	0.0108011
682.119	0.0110294
682.197	0.0114719
682.275	0.0119669
682.353	0.0120528
682.432	0.0125283
682.510	0.0131268
682.588	0.0134704
682.666	0.0137617
682.744	0.0141787
682.822	0.0147791
682.900	0.0151531
682.978	0.0153173
683.057	0.0157233
683.135	0.0160632
683.213	0.0164257
683.291	0.0167383
683.369	0.0168231
683.447	0.0169035
683.525	0.0171239
683.603	0.0171506
683.682	0.0172187
683.760	0.0170599
683.838	0.0168928
683.916	0.0167061
683.994	0.0163132
684.072	0.0162447
684.150	0.0155595
684.228	0.0153011
684.307	0.0147755
684.385	0.0143818
684.463	0.0139411
684.541	0.0132616
684.619	0.0129324
684.697	0.0125491
684.775	0.0122301
684.853	0.0119084
684.932	0.0114161
685.010	0.0113878
685.088	0.0112162
685.166	0.0110626
685.244	0.0111867
685.322	0.0110838
685.400	0.0113742
685.478	0.0115237
685.557	0.0117931
685.635	0.0122148
685.713	0.0122681
685.791	0.0125269
685.869	0.0128818
685.947	0.0134155
686.025	0.0136607
686.103	0.0139599
686.182	0.0142989
686.260	0.0146674
686.338	0.0149894
686.416	0.0153088
686.494	0.0157622
686.572	0.0158765
686.650	0.0162399
686.728	0.0162839
686.807	0.0164559
686.885	0.0165125
686.963	0.0165187
687.041	0.0165199
687.119	0.0164207
687.197	0.0162527
687.275	0.0158996
687.353	0.0158255
687.432	0.0155164
687.510	0.0152001
687.588	0.0150375
687.666	0.0146294
687.744	0.0142857
687.822	0.0141319
687.900	0.0138059
687.978	0.0135752
688.057	0.0135799
688.135	0.0133808
688.213	0.0131346
688.291	0.0131528
688.369	0.0131054
688.447	0.0130805
688.525	0.0130784
688.603	0.0130268
688.682	0.0132144
688.760	0.0133723
688.838	0.0135339
688.916	0.0134776
688.994	0.0136361
689.072	0.0136954
689.150	0.0140438
689.228	0.0138485
689.307	0.0137997
689.385	0.0139915
689.463	0.0138974
689.541	0.0138815
689.619	0.0139906
689.697	0.0138119
689.775	0.0136353
689.853	0.0135919
689.932	0.0134007
690.010	0.0134676
690.088	0.0133069
690.166	0.0132204
690.244	0.0133547
690.322	0.0134519
690.400	0.0135011
690.478	0.0133775
690.557	0.0133858
690.635	0.0136543
690.713	0.0137708
690.791	0.0138982
690.869	0.0140424
690.947	0.0142335
691.025	0.0143015
691.103	0.0143178
691.182	0.0145070
691.260	0.0147910
691.338	0.0149630
691.416	0.0149991
691.494	0.0151385
691.572	0.0154072
691.650	0.0152740
691.728	0.0154646
691.807	0.0155062
691.885	0.0154837
691.963	0.0154750
692.041	0.0156452
692.119	0.0155994
692.197	0.0155390
692.275	0.0154885
692.353	0.0155087
692.432	0.0154427
692.510	0.0153829
692.588	0.0151147
692.666	0.0151436
692.744	0.0150645
692.822	0.0149452
692.900	0.0147432
692.978	0.0147677
693.057	0.0145704
693.135	0.0143923
693.213	0.0144034
693.291	0.0141018
693.369	0.0139202
693.447	0.0138618
693.525	0.0137987
693.603	0.0138365
693.682	0.0136209
693.760	0.0134860
693.838	0.0134370
693.916	0.0133791
693.994	0.0133942
694.072	0.0134197
694.150	0.0132848
694.228	0.0133915
694.307	0.0133304
694.385	0.0133251
694.463	0.0133829
694.541	0.0134632
694.619	0.0135019
694.697	0.0134875
694.775	0.0135683
694.853	0.0135623
694.932	0.0136325
695.010	0.0135992
695.088	0.0136572
695.166	0.0136019
695.244	0.0136543
695.322	0.0134646
695.400	0.0135594
695.478	0.0134613
695.557	0.0134217
695.635	0.0133054
695.713	0.0132397
695.791	0.0130286
695.869	0.0128374
695.947	0.0129282
696.025	0.0126530
696.103	0.0124919
696.182	0.0123943
696.260	0.0122733
696.338	0.0120815
696.416	0.0121030
696.494	0.0120794
696.572	0.0122465
696.650	0.0123259
696.728	0.0125003
696.807	0.0127091
696.885	0.0130617
696.963	0.0134009
697.041	0.0136122
697.119	0.0139732
697.197	0.0144720
697.275	0.0149070
697.353	0.0152433
697.432	0.0156168
697.510	0.0160425
697.588	0.0163766
697.666	0.0166334
697.744	0.0170219
697.822	0.0173843
697.900	0.0175124
697.978	0.0177175
698.057	0.0177466
698.135	0.0177824
698.213	0.0179951
698.291	0.0177316
698.369	0.0176111
698.447	0.0174868
698.525	0.0172801
698.603	0.0170853
698.682	0.0168547
698.760	0.0165181
698.838	0.0159815
698.916	0.0157793
698.994	0.0153220
699.072	0.0149071
699.150	0.0145566
699.228	0.0141870
699.307	0.0135834
699.385	0.0132034
699.463	0.0126817
699.541	0.0122514
699.619	0.0118924
699.697	0.0114867
699.775	0.0111794
699.853	0.0109107
699.932	0.0105242
700.010	0.0102099
700.088	0.0100129
700.166	0.00973892
700.244	0.00984383
700.322	0.00972885
700.400	0.00967659
700.478	0.00973160
700.557	0.00977562
700.635	0.0100164
700.713	0.0102657
700.791	0.0106578
700.869	0.0109486
700.947	0.0112846
701.025	0.0116793
701.103	0.0122812
701.182	0.0126267
701.260	0.0131851
701.338	0.0136900
701.416	0.0142922
701.494	0.0145901
701.572	0.0150156
701.650	0.0154557
701.728	0.0157635
701.807	0.0161148
701.885	0.0163624
701.963	0.0164577
702.041	0.0166629
702.119	0.0167626
702.197	0.0167699
702.275	0.0170212
702.353	0.0171056
702.432	0.0170082
702.510	0.0170555
702.588	0.0170416
702.666	0.0169028
702.744	0.0169756
702.822	0.0168832
702.900	0.0168842
702.978	0.0168376
703.057	0.0165357
703.135	0.0165012
703.213	0.0163268
703.291	0.0160767
703.369	0.0158073
703.447	0.0156994
703.525	0.0150531
703.603	0.0151147
703.682	0.0148937
703.760	0.0145203
703.838	0.0144291
703.916	0.0140504
703.994	0.0139425
704.072	0.0137428
704.150	0.0135113
704.228	0.0134057
704.307	0.0131728
704.385	0.0130315
704.463	0.0128311
704.541	0.0127534
704.619	0.0127355
704.697	0.0125820
704.775	0.0126136
704.853	0.0126492
704.932	0.0125531
705.010	0.0126448
705.088	0.0127785
705.166	0.0127861
705.244	0.0127286
705.322	0.0128241
705.400	0.0131367
705.478	0.0131101
705.557	0.0128451
705.635	0.0129926
705.713	0.0132301
705.791	0.0131765
705.869	0.0131992
705.947	0.0133775
706.025	0.0133266
706.103	0.0134149
706.182	0.0134957
706.260	0.0135945
706.338	0.0137490
706.416	0.0139525
706.494	0.0140739
706.572	0.0141479
706.650	0.0141684
706.728	0.0144881
706.807	0.0145945
706.885	0.0144474
706.963	0.0145245
707.041	0.0146060
707.119	0.0144632
707.197	0.0144073
707.275	0.0144680
707.353	0.0143990
707.432	0.0139856
707.510	0.0139011
707.588	0.0139159
707.666	0.0136620
707.744	0.0136790
707.822	0.0134350
707.900	0.0132748
707.978	0.0131796
708.057	0.0131356
708.135	0.0131599
708.213	0.0131564
708.291	0.0132774
708.369	0.0131469
708.447	0.0132717
708.525	0.0135616
708.603	0.0136475
708.682	0.0139446
708.760	0.0142886
708.838	0.0145860
708.916	0.0148074
708.994	0.0151727
709.072	0.0155990
709.150	0.0156376
709.228	0.0158426
709.307	0.0160386
709.385	0.0160879
709.463	0.0161832
709.541	0.0160812
709.619	0.0161004
709.697	0.0157987
709.775	0.0156377
709.853	0.0155151
709.932	0.0153864
710.010	0.0151633
710.088	0.0150075
710.166	0.0149853
710.244	0.0147568
710.322	0.0144948
710.400	0.0144772
710.478	0.0144289
710.557	0.0142227
710.635	0.0142403
710.713	0.0141187
710.791	0.0140926
710.869	0.0141071
710.947	0.0139611
711.025	0.0140527
711.103	0.0138124
711.182	0.0137995
711.260	0.0136985
711.338	0.0136101
711.416	0.0134567
711.494	0.0132346
711.572	0.0131940
711.650	0.0128954
711.728	0.0127375
711.807	0.0127104
711.885	0.0125046
711.963	0.0124130
712.041	0.0123594
712.119	0.0121856
712.197	0.0120197
712.275	0.0119650
712.353	0.0119875
712.432	0.0118075
712.510	0.0118927
712.588	0.0120307
712.666	0.0121439
712.744	0.0122692
712.822	0.0123383
712.900	0.0124128
712.978	0.0126385
713.057	0.0127031
713.135	0.0128675
713.213	0.0129868
713.291	0.0133688
713.369	0.0135477
713.447	0.0136983
713.525	0.0139478
713.603	0.0141185
713.682	0.0143549
713.760	0.0145796
713.838	0.0146600
713.916	0.0147210
713.994	0.0149282
714.072	0.0152462
714.150	0.0150845
714.228	0.0153619
714.307	0.0153126
714.385	0.0156097
714.463	0.0159714
714.541	0.0159388
714.619	0.0158883
714.697	0.0161269
714.775	0.0161675
714.853	0.0163396
714.932	0.0163941
715.010	0.0164658
715.088	0.0163479
715.166	0.0164448
715.244	0.0163244
715.322	0.0161699
715.400	0.0161282
715.478	0.0158274
715.557	0.0156625
715.635	0.0154612
715.713	0.0150160
715.791	0.0148565
715.869	0.0148038
715.947	0.0143639
716.025	0.0142229
716.103	0.0140417
716.182	0.0139111
716.260	0.0137395
716.338	0.0135380
716.416	0.0133468
716.494	0.0133084
716.572	0.0132619
716.650	0.0131672
716.728	0.0130952
716.807	0.0129143
716.885	0.0129245
716.963	0.0130444
717.041	0.0129034
717.119	0.0129937
717.197	0.0129670
717.275	0.0129580
717.353	0.0130958
717.432	0.0131329
717.510	0.0130882
717.588	0.0131981
717.666	0.0131767
717.744	0.0132906
717.822	0.0131357
717.900	0.0132878
717.978	0.0132616
718.057	0.0134074
718.135	0.0133372
718.213	0.0134932
718.291	0.0132915
718.369	0.0132451
718.447	0.0132967
718.525	0.0133135
718.603	0.0133183
718.682	0.0136375
718.760	0.0135428
718.838	0.0137595
718.916	0.0137260
718.994	0.0136241
719.072	0.0137344
719.150	0.0138725
719.228	0.0140270
719.307	0.0140955
719.385	0.0141678
719.463	0.0141998
719.541	0.0140662
719.619	0.0142553
719.697	0.0143836
719.775	0.0142812
719.853	0.0142991
719.932	0.0145686
720.010	0.0145966
720.088	0.0147925
720.166	0.0147269
720.244	0.0146204
720.322	0.0146651
720.400	0.0146912
720.478	0.0146076
720.557	0.0146683
720.635	0.0147759
720.713	0.0148253
720.791	0.0146066
720.869	0.0147167
720.947	0.0145711
721.025	0.0146294
721.103	0.0146304
721.182	0.0146574
721.260	0.0147636
721.338	0.0147002
721.416	0.0147517
721.494	0.0148090
721.572	0.0149105
721.650	0.0150340
721.728	0.0148680
721.807	0.0149731
721.885	0.0148898
721.963	0.0149384
722.041	0.0148274
722.119	0.0148836
722.197	0.0148147
722.275	0.0148142
722.353	0.0145557
722.432	0.0143520
722.510	0.0143315
722.588	0.0141450
722.666	0.0139675
722.744	0.0139240
722.822	0.0138245
722.900	0.0135314
722.978	0.0134407
723.057	0.0132787
723.135	0.0133437
723.213	0.0131207
723.291	0.0131766
723.369	0.0131477
723.447	0.0130617
723.525	0.0129358
723.603	0.0130486
723.682	0.0130963
723.760	0.0129790
723.838	0.0129562
723.916	0.0131381
723.994	0.0130896
724.072	0.0130293
724.150	0.0131661
724.228	0.0131361
724.307	0.0131538
724.385	0.0132156
724.463	0.0129469
724.541	0.0129537
724.619	0.0131560
724.697	0.0130766
724.775	0.0130437
724.853	0.0131435
724.932	0.0132214
725.010	0.0132725
725.088	0.0133389
725.166	0.0134812
725.244	0.0135267
725.322	0.0136139
725.400	0.0136980
725.478	0.0138058
725.557	0.0139951
725.635	0.0140999
725.713	0.0141450
725.791	0.0143240
725.869	0.0142875
725.947	0.0143636
726.025	0.0145271
726.103	0.0146884
726.182	0.0145420
726.260	0.0145586
726.338	0.0146916
726.416	0.0146532
726.494	0.0146377
726.572	0.0146109
726.650	0.0146237
726.728	0.0146137
726.807	0.0147039
726.885	0.0148003
726.963	0.0146698
727.041	0.0146042
727.119	0.0145225
727.197	0.0147354
727.275	0.0145320
727.353	0.0147017
727.432	0.0145782
727.510	0.0145490
727.588	0.0147691
727.666	0.0147668
727.744	0.0146890
727.822	0.0147058
727.900	0.0146741
727.978	0.0145667
728.057	0.0145183
728.135	0.0146088
728.213	0.0145411
728.291	0.0144681
728.369	0.0144663
728.447	0.0144284
728.525	0.0141379
728.603	0.0142199
728.682	0.0140690
728.760	0.0140871
728.838	0.0139484
728.916	0.0137868
728.994	0.0137678
729.072	0.0136398
729.150	0.0135863
729.228	0.0134739
729.307	0.0135389
729.385	0.0134301
729.463	0.0133460
729.541	0.0133884
729.619	0.0134261
729.697	0.0132954
729.775	0.0133305
729.853	0.0133714
729.932	0.0133162
730.010	0.0135464
730.088	0.0134043
730.166	0.0134457
730.244	0.0133389
730.322	0.0133722
730.400	0.0134961
730.478	0.0135086
730.557	0.0133734
730.635	0.0135416
730.713	0.0134717
730.791	0.0136550
730.869	0.0136763
730.947	0.0136665
731.025	0.0137122
731.103	0.0137569
731.182	0.0137011
731.260	0.0138718
731.338	0.0139622
731.416	0.0139845
731.494	0.0140498
731.572	0.0142066
731.650	0.0142304
731.728	0.0141551
731.807	0.0143378
731.885	0.0143225
731.963	0.0144299
732.041	0.0144852
732.119	0.0144720
732.197	0.0146185
732.275	0.0147491
732.353	0.0147449
732.432	0.0146609
732.510	0.0146462
732.588	0.0146693
732.666	0.0147541
732.744	0.0144035
732.822	0.0145380
732.900	0.0144768
732.978	0.0145007
733.057	0.0144540
733.135	0.0142991
733.213	0.0141742
733.291	0.0141958
733.369	0.0142525
733.447	0.0142113
733.525	0.0141766
733.603	0.0141753
733.682	0.0141646
733.760	0.0139996
733.838	0.0140704
733.916	0.0138615
733.994	0.0139780
734.072	0.0138530
734.150	0.0140733
734.228	0.0139641
734.307	0.0139417
734.385	0.0139126
734.463	0.0139742
734.541	0.0139816
734.619	0.0140163
734.697	0.0139810
734.775	0.0138870
734.853	0.0140970
734.932	0.0140788
735.010	0.0140601
735.088	0.0141996
735.166	0.0141138
735.244	0.0142981
735.322	0.0142494
735.400	0.0143289
735.478	0.0143107
735.557	0.0143163
735.635	0.0142281
735.713	0.0143122
